time (s)	coil I (A)	last det (V)	int current (uC)
8402.761787	1.115856	0.438067	598.098633
8402.762764	1.533168	0.438067	2096.003418
8402.763688	1.512642	0.438067	3493.684082
8402.764570	1.473475	0.438067	4793.289062
8402.765609	1.429794	0.438067	6278.844727
8402.766507	1.391840	0.438067	7528.716797
8402.767384	1.356797	0.438067	8718.627930
8402.768286	0.932582	0.438067	9559.816406
8402.769311	0.107637	0.438067	9670.143555
8402.770192	0.094684	0.438067	9753.559570
8402.771061	0.094874	0.438067	9836.004883
8402.772046	0.094889	0.438067	9929.470703
8402.772962	0.094940	0.438067	10016.435547
8402.773884	0.094860	0.438067	10103.896484
8402.774750	0.095046	0.438067	10186.207031
8402.775779	0.094871	0.438067	10283.829102
8402.776673	0.094783	0.438067	10368.564453
8402.777550	0.094922	0.438067	10451.810547
8403.771915	1.099193	0.433886	550.695740
8403.772830	1.530670	0.433886	1951.259033
8403.773694	1.517911	0.433886	3262.734375
8403.774783	1.471512	0.433886	4865.211426
8403.775775	1.428853	0.433886	6282.633301
8403.776673	1.391931	0.433886	7532.587402
8403.777658	1.353285	0.433886	8865.573242
8403.778723	0.640884	0.433886	9548.114258
8403.779623	0.098174	0.433886	9636.470703
8403.780486	0.094940	0.433886	9718.404297
8403.781577	0.095083	0.433886	9822.139648
8403.782541	0.095013	0.433886	9913.732422
8403.783409	0.094980	0.433886	9996.175781
8403.784428	0.095142	0.433886	10093.125000
8403.785461	0.095035	0.433886	10191.296875
8403.786342	0.095013	0.433886	10275.003906
8403.787203	0.095028	0.433886	10356.823242
8403.788302	0.095013	0.433886	10461.243164
8404.781504	1.032301	0.522319	442.857117
8404.782422	1.524412	0.522319	1842.267090
8404.783383	1.517875	0.522319	3300.944824
8404.784302	1.478101	0.522319	4659.319336
8404.785173	1.439678	0.522319	5913.278809
8404.786149	1.400244	0.522319	7279.916992
8404.787068	1.361854	0.522319	8531.460937
8404.787982	1.118251	0.522319	9553.541992
8404.788869	0.161682	0.522319	9696.954102
8404.789844	0.094874	0.522319	9789.456055
8404.790798	0.094922	0.522319	9880.011719
8404.791687	0.094962	0.522319	9964.432617
8404.792595	0.095035	0.522319	10050.724609
8404.793552	0.094999	0.522319	10141.638672
8404.794474	0.094926	0.522319	10229.160156
8404.795337	0.095017	0.522319	10311.160156
8404.796268	0.095028	0.522319	10399.630859
8404.797212	0.094980	0.522319	10489.291992
8405.811149	1.043720	0.431876	451.930542
8405.812013	1.523621	0.431876	1768.338745
8405.812986	1.518999	0.431876	3246.324707
8405.813897	1.479265	0.431876	4593.935059
8405.814790	1.440743	0.431876	5880.519043
8405.815701	1.402529	0.431876	7158.223145
8405.816652	1.364491	0.431876	8455.854492
8405.817590	1.158812	0.431876	9542.820312
8405.818459	0.176437	0.431876	9696.143555
8405.819427	0.094845	0.431876	9787.953125
8405.820355	0.095021	0.431876	9876.132812
8405.821263	0.094860	0.431876	9962.265625
8405.822122	0.094951	0.431876	10043.829102
8405.823084	0.095017	0.431876	10135.235352
8405.824013	0.094962	0.431876	10223.455078
8405.824902	0.095032	0.431876	10307.938477
8405.825808	0.094958	0.431876	10393.970703
8405.826771	0.094948	0.431876	10485.405273
8406.802358	1.018652	0.542038	426.815308
8406.803276	1.521834	0.542038	1823.858521
8406.804214	1.518182	0.542038	3247.913574
8406.805140	1.478492	0.542038	4616.997559
8406.806024	1.440209	0.542038	5890.142090
8406.807033	1.398702	0.542038	7301.432617
8406.808103	1.355940	0.542038	8752.288086
8406.809059	0.882488	0.542038	9595.946289
8406.809922	0.113837	0.542038	9694.187500
8406.810972	0.095006	0.542038	9793.944336
8406.811990	0.094955	0.542038	9890.608398
8406.812872	0.094966	0.542038	9974.368164
8406.813820	0.094951	0.542038	10064.381836
8406.814861	0.094991	0.542038	10163.267578
8406.815778	0.095028	0.542038	10250.408203
8406.816640	0.095079	0.542038	10332.366211
8406.817669	0.095149	0.542038	10430.274414
8406.818688	0.094995	0.542038	10527.074219
8407.851990	1.047125	0.497203	476.441986
8407.852926	1.528700	0.497203	1907.305176
8407.853859	1.516890	0.497203	3322.563232
8407.854748	1.478152	0.497203	4636.640137
8407.855665	1.438513	0.497203	5955.756836
8407.856633	1.398164	0.497203	7309.179687
8407.857559	1.361360	0.497203	8569.798828
8407.858422	1.135247	0.497203	9549.516602
8407.859401	0.150557	0.497203	9696.911133
8407.860349	0.094841	0.497203	9786.820312
8407.861232	0.094904	0.497203	9870.620117
8407.862108	0.094900	0.497203	9953.751953
8407.863037	0.094893	0.497203	10041.907227
8407.863978	0.094995	0.497203	10131.297852
8407.864869	0.095043	0.497203	10215.980469
8407.865784	0.095094	0.497203	10302.991211
8407.866734	0.094984	0.497203	10393.226562
8407.867651	0.094944	0.497203	10480.290039
8408.826877	1.058086	0.615080	506.823151
8408.827799	1.527920	0.615080	1915.565308
8408.828675	1.518417	0.615080	3245.698242
8408.829564	1.479306	0.615080	4560.800781
8408.830513	1.437737	0.615080	5925.212891
8408.831477	1.398461	0.615080	7273.329102
8408.832373	1.362429	0.615080	8494.065430
8408.833363	1.020033	0.615080	9503.898437
8408.834418	0.115854	0.615080	9626.125000
8408.835391	0.094863	0.615080	9718.426758
8408.836254	0.094918	0.615080	9800.340820
8408.837331	0.095076	0.615080	9902.737305
8408.838361	0.094984	0.615080	10000.571289
8408.839253	0.094984	0.615080	10085.296875
8408.840171	0.095006	0.615080	10172.512695
8408.841228	0.095054	0.615080	10272.984375
8408.842173	0.094999	0.615080	10362.757812
8408.843035	0.094977	0.615080	10444.627930
8409.882558	1.026716	0.490395	437.381165
8409.883422	1.522624	0.490395	1752.928711
8409.884491	1.515579	0.490395	3373.082275
8409.885445	1.473743	0.490395	4779.032715
8409.886328	1.435646	0.490395	6046.708008
8409.887274	1.396725	0.490395	7368.009766
8409.888301	1.356061	0.490395	8760.684570
8409.889192	0.959205	0.490395	9615.336914
8409.890058	0.123783	0.490395	9722.533203
8409.891117	0.094984	0.490395	9823.121094
8409.892062	0.094948	0.490395	9912.846680
8409.892965	0.094980	0.490395	9998.614258
8409.893841	0.095057	0.490395	10081.884766
8409.894860	0.094966	0.490395	10178.655273
8409.895770	0.094951	0.490395	10265.060547
8409.896638	0.095010	0.490395	10347.529297
8409.897699	0.095127	0.490395	10448.458984
8409.898670	0.094977	0.490395	10540.681641
8410.855364	1.035385	0.662811	446.250732
8410.856241	1.523174	0.662811	1782.074219
8410.857198	1.518776	0.662811	3235.542480
8410.858227	1.474567	0.662811	4752.871582
8410.859120	1.435693	0.662811	6034.945801
8410.859987	1.399098	0.662811	7247.963867
8410.861037	1.357500	0.662811	8673.338867
8410.861991	0.960520	0.662811	9589.674805
8410.862863	0.122736	0.662811	9696.700195
8410.863803	0.094973	0.662811	9785.974609
8410.864851	0.094988	0.662811	9885.521484
8410.865732	0.094984	0.662811	9969.202148
8410.866589	0.094951	0.662811	10050.575195
8410.867619	0.095105	0.662811	10148.533203
8410.868581	0.094933	0.662811	10239.858398
8410.869451	0.095002	0.662811	10322.510742
8410.870335	0.095024	0.662811	10406.512695
8410.871425	0.094984	0.662811	10510.044922
8411.914763	1.105001	0.516547	539.240601
8411.915652	1.528934	0.516547	1898.463257
8411.916530	1.519384	0.516547	3232.481934
8411.917464	1.478672	0.516547	4613.561523
8411.918463	1.435873	0.516547	6047.998535
8411.919388	1.397424	0.516547	7340.616211
8411.920260	1.362308	0.516547	8528.548828
8411.921315	0.977230	0.516547	9559.526367
8411.922196	0.124501	0.516547	9669.211914
8411.923121	0.094922	0.516547	9757.014648
8411.923980	0.095002	0.516547	9838.622070
8411.924999	0.094999	0.516547	9935.425781
8411.925919	0.094962	0.516547	10022.791016
8411.926804	0.094962	0.516547	10106.833008
8411.927784	0.094966	0.516547	10199.899414
8411.928726	0.094977	0.516547	10289.367187
8411.929647	0.094999	0.516547	10376.861328
8411.930514	0.095006	0.516547	10459.231445
8412.884956	1.072925	0.706386	481.743195
8412.885841	1.525056	0.706386	1831.417847
8412.886702	1.519094	0.706386	3139.357910
8412.887817	1.474054	0.706386	4782.928223
8412.888711	1.434141	0.706386	6065.049805
8412.889582	1.398208	0.706386	7282.889160
8412.890577	1.358189	0.706386	8634.287109
8412.891583	0.907394	0.706386	9547.125000
8412.892479	0.113793	0.706386	9649.083008
8412.893346	0.094852	0.706386	9731.320312
8412.894435	0.094958	0.706386	9834.730469
8412.895352	0.094878	0.706386	9921.733398
8412.896230	0.094918	0.706386	10005.071289
8412.897218	0.094962	0.706386	10098.893555
8412.898216	0.094955	0.706386	10193.658203
8412.899102	0.094955	0.706386	10277.788086
8412.899962	0.095006	0.706386	10359.493164
8412.901045	0.094958	0.706386	10462.333008
8413.942735	1.054065	0.551646	461.680420
8413.943607	1.524353	0.551646	1790.916260
8413.944655	1.515128	0.551646	3378.770508
8413.945548	1.475713	0.551646	4696.582031
8413.946429	1.437737	0.551646	5963.228516
8413.947394	1.398483	0.551646	7312.764160
8413.948366	1.358906	0.551646	8633.621094
8413.949292	1.028218	0.551646	9585.750977
8413.950160	0.136520	0.551646	9704.250000
8413.951182	0.094900	0.551646	9801.237305
8413.952063	0.094999	0.551646	9884.931641
8413.952935	0.095068	0.551646	9967.831055
8413.953830	0.094999	0.551646	10052.854492
8413.954839	0.094984	0.551646	10148.693359
8413.955765	0.095035	0.551646	10236.696289
8413.956644	0.095043	0.551646	10320.239258
8413.957626	0.095039	0.551646	10413.567383
8413.958558	0.095006	0.551646	10502.113281
8414.915527	1.034059	0.755680	448.781586
8414.916390	1.521870	0.755680	1762.155518
8414.917473	1.513663	0.755680	3401.452881
8414.918400	1.473014	0.755680	4766.936523
8414.919280	1.435049	0.755680	6029.779297
8414.920260	1.394747	0.755680	7396.631836
8414.921276	1.354248	0.755680	8772.547852
8414.922171	0.934435	0.755680	9608.867187
8414.923030	0.119674	0.755680	9711.666992
8414.924108	0.094973	0.755680	9814.047852
8414.925036	0.094922	0.755680	9902.135742
8414.925910	0.094904	0.755680	9985.081055
8414.926858	0.095057	0.755680	10075.195312
8414.927878	0.094969	0.755680	10172.064453
8414.928762	0.094991	0.755680	10256.037109
8414.929619	0.095013	0.755680	10337.463867
8414.930676	0.095017	0.755680	10437.896484
8414.931608	0.094966	0.755680	10526.404297
8415.973952	1.126992	0.568291	628.861572
8415.974876	1.532274	0.568291	2044.682861
8415.975794	1.513953	0.568291	3434.491211
8415.976658	1.474977	0.568291	4708.871094
8415.977684	1.431504	0.568291	6177.594238
8415.978589	1.393726	0.568291	7438.916016
8415.979468	1.358870	0.568291	8633.362305
8415.980402	0.971569	0.568291	9540.807617
8415.981389	0.112577	0.568291	9651.920898
8415.982302	0.094915	0.568291	9738.578125
8415.983172	0.094955	0.568291	9821.188477
8415.984247	0.094926	0.568291	9923.233398
8415.985148	0.094955	0.568291	10008.788086
8415.986021	0.094962	0.568291	10091.690430
8415.986897	0.095046	0.568291	10174.951172
8415.987935	0.094977	0.568291	10273.537109
8415.988803	0.095043	0.568291	10356.034180
8415.989672	0.095017	0.568291	10438.604492
8416.945594	1.023329	0.785647	430.821472
8416.946640	1.527960	0.785647	2029.067871
8416.947673	1.508972	0.785647	3587.836182
8416.948554	1.469835	0.785647	4882.760742
8416.949531	1.428948	0.785647	6278.842773
8416.950574	1.385314	0.785647	7723.725098
8416.951495	1.348872	0.785647	8966.036133
8416.952363	0.772405	0.785647	9636.483398
8416.953414	0.099075	0.785647	9740.611328
8416.954413	0.094999	0.785647	9835.514648
8416.955300	0.095043	0.785647	9919.817383
8416.956264	0.095072	0.785647	10011.466797
8416.957317	0.095024	0.785647	10111.527344
8416.958227	0.095002	0.785647	10197.979492
8416.959103	0.094980	0.785647	10281.182617
8416.960075	0.095024	0.785647	10373.545898
8416.961094	0.094922	0.785647	10470.271484
8416.961980	0.094951	0.785647	10554.398437
8418.003522	1.163236	0.607269	639.779907
8418.004496	1.533322	0.607269	2133.235107
8418.005376	1.512821	0.607269	3464.517578
8418.006251	1.472897	0.607269	4753.302246
8418.007373	1.427109	0.607269	6354.519043
8418.008272	1.389185	0.607269	7603.395996
8418.009140	1.354958	0.607269	8779.500000
8418.010247	0.674037	0.607269	9525.659180
8418.011207	0.097994	0.607269	9619.733398
8418.012080	0.094915	0.607269	9702.593750
8418.012965	0.094984	0.607269	9786.654297
8418.014043	0.095002	0.607269	9889.067383
8418.014921	0.095006	0.607269	9972.482422
8418.015779	0.095021	0.607269	10054.009766
8418.016813	0.095061	0.607269	10152.302734
8418.017778	0.094955	0.607269	10243.934570
8418.018699	0.095017	0.607269	10331.445312
8418.019560	0.094973	0.607269	10413.216797
8418.977734	1.028130	0.830732	447.236481
8418.978600	1.521863	0.830732	1765.169556
8418.979628	1.515839	0.830732	3323.451660
8418.980668	1.471454	0.830732	4853.763672
8418.981547	1.432317	0.830732	6112.770508
8418.982450	1.394216	0.830732	7371.748047
8418.983561	1.351483	0.830732	8873.246094
8418.984510	0.767743	0.830732	9601.833984
8418.985368	0.104528	0.830732	9691.518555
8418.986388	0.095057	0.830732	9788.477539
8418.987419	0.094944	0.830732	9886.364258
8418.988309	0.095021	0.830732	9970.932617
8418.989248	0.094951	0.830732	10060.091797
8418.990313	0.095021	0.830732	10161.289062
8418.991239	0.094955	0.830732	10249.216797
8418.992102	0.094969	0.830732	10331.175781
8418.993152	0.095032	0.830732	10430.958984
8418.994158	0.094969	0.830732	10526.498047
8420.033585	1.128592	0.632534	615.082886
8420.034510	1.531992	0.632534	2032.175659
8420.035434	1.513564	0.632534	3430.709229
8420.036313	1.473966	0.632534	4726.325195
8420.037353	1.430420	0.632534	6213.961914
8420.038253	1.392861	0.632534	7467.537109
8420.039133	1.358002	0.632534	8662.578125
8420.040107	0.927059	0.632534	9565.534180
8420.041070	0.110662	0.632534	9672.101562
8420.041990	0.094907	0.632534	9759.416016
8420.042854	0.095032	0.632534	9841.523437
8420.043884	0.094973	0.632534	9939.345703
8420.044761	0.094951	0.632534	10022.618164
8420.045621	0.094948	0.632534	10104.273437
8420.046505	0.094980	0.632534	10188.236328
8420.047537	0.094962	0.632534	10286.237305
8420.048438	0.094955	0.632534	10371.791992
8420.049314	0.094962	0.632534	10454.978516
8421.009351	1.036263	0.865049	450.774567
8421.010380	1.527213	0.865049	2022.276855
8421.011266	1.514454	0.865049	3364.083496
8421.012148	1.476171	0.865049	4666.065918
8421.013017	1.436558	0.865049	5914.434570
8421.014073	1.394593	0.865049	7387.125000
8421.014967	1.358752	0.865049	8601.849609
8421.015849	1.098732	0.865049	9570.930664
8421.016832	0.144877	0.865049	9713.344727
8421.017760	0.094911	0.865049	9801.421875
8421.018685	0.094948	0.865049	9889.248047
8421.019548	0.095021	0.865049	9971.250977
8421.020578	0.094929	0.865049	10069.028320
8421.021462	0.094951	0.865049	10152.964844
8421.022327	0.095065	0.865049	10235.195312
8421.023261	0.095002	0.865049	10323.927734
8421.024243	0.095002	0.865049	10417.219727
8421.025157	0.094977	0.865049	10504.028320
8422.064083	1.057841	0.672451	461.218506
8422.064969	1.525166	0.672451	1812.515625
8422.065843	1.520808	0.672451	3141.701904
8422.066860	1.477723	0.672451	4644.546387
8422.067769	1.437400	0.672451	5951.143066
8422.068675	1.399563	0.672451	7219.146973
8422.069552	1.363550	0.672451	8414.980469
8422.070593	1.056921	0.672451	9515.235352
8422.071490	0.140189	0.672451	9640.985352
8422.072363	0.094911	0.672451	9723.842773
8422.073328	0.095013	0.672451	9815.530273
8422.074279	0.095083	0.672451	9905.954102
8422.075196	0.095039	0.672451	9993.104492
8422.076060	0.095120	0.672451	10075.288086
8422.077096	0.095002	0.672451	10173.710937
8422.077979	0.095032	0.672451	10257.624023
8422.078894	0.095035	0.672451	10344.581055
8422.079754	0.095035	0.672451	10426.311523
8423.040962	1.037300	0.887362	448.113556
8423.041836	1.522610	0.887362	1778.874512
8423.042701	1.520218	0.887362	3093.863525
8423.043770	1.476009	0.887362	4671.717773
8423.044664	1.437030	0.887362	5956.422852
8423.045546	1.400446	0.887362	7191.615723
8423.046539	1.361492	0.887362	8543.577148
8423.047492	1.059397	0.887362	9553.182617
8423.048422	0.135494	0.887362	9679.192383
8423.049282	0.094907	0.887362	9760.812500
8423.050288	0.095043	0.887362	9856.425781
8423.051190	0.094991	0.887362	9942.108398
8423.052065	0.094991	0.887362	10025.225586
8423.052978	0.095035	0.887362	10111.993164
8423.053963	0.094958	0.887362	10205.527344
8423.054872	0.094988	0.887362	10291.871094
8423.055758	0.095057	0.887362	10376.091797
8423.056756	0.095057	0.887362	10470.958984
8424.092602	1.031792	0.680572	434.384399
8424.093637	1.529875	0.680572	2017.805420
8424.094517	1.515461	0.680572	3351.411621
8424.095430	1.475489	0.680572	4698.533691
8424.096315	1.436777	0.680572	5970.081543
8424.097301	1.396798	0.680572	7347.324219
8424.098228	1.359668	0.680572	8607.736328
8424.099109	1.106041	0.680572	9582.158203
8424.100173	0.120201	0.680572	9710.052734
8424.101070	0.094896	0.680572	9795.174805
8424.101980	0.094944	0.680572	9881.573242
8424.102840	0.094962	0.680572	9963.240234
8424.103815	0.094948	0.680572	10055.814453
8424.104730	0.094962	0.680572	10142.705078
8424.105630	0.094962	0.680572	10228.170898
8424.106507	0.094940	0.680572	10311.433594
8424.107485	0.094988	0.680572	10404.332031
8424.108410	0.094926	0.680572	10492.137695
8425.073665	1.107242	0.898170	529.261902
8425.074556	1.526946	0.898170	1889.770752
8425.075430	1.518435	0.898170	3216.882812
8425.076442	1.476174	0.898170	4710.770996
8425.077371	1.434342	0.898170	6043.274902
8425.078290	1.396589	0.898170	7326.740723
8425.079155	1.360869	0.898170	8503.892578
8425.080196	0.987532	0.898170	9531.913086
8425.081092	0.124878	0.898170	9643.803711
8425.081965	0.094900	0.898170	9726.651367
8425.082924	0.095032	0.898170	9817.787109
8425.083892	0.095046	0.898170	9909.791992
8425.084811	0.095002	0.898170	9997.099609
8425.085675	0.094980	0.898170	10079.163086
8425.086701	0.095054	0.898170	10176.688477
8425.087592	0.094969	0.898170	10261.306641
8425.088468	0.095010	0.898170	10344.535156
8425.089349	0.095057	0.898170	10428.280273
8426.120214	1.137693	0.706825	576.810242
8426.121115	1.529828	0.706825	1955.185059
8426.122038	1.515641	0.706825	3354.121582
8426.122908	1.476163	0.706825	4638.383789
8426.123925	1.434012	0.706825	6096.774414
8426.124853	1.395106	0.706825	7391.433105
8426.125739	1.359782	0.706825	8596.199219
8426.126650	1.079469	0.706825	9579.595703
8426.127613	0.135381	0.706825	9709.967773
8426.128538	0.094882	0.706825	9797.733398
8426.129406	0.094940	0.706825	9880.141602
8426.130317	0.094871	0.706825	9966.568359
8426.131273	0.094900	0.706825	10057.292969
8426.132197	0.094969	0.706825	10145.044922
8426.133069	0.094922	0.706825	10227.816406
8426.134041	0.094885	0.706825	10320.044922
8426.134974	0.094962	0.706825	10408.644531
8426.135834	0.094958	0.706825	10490.308594
8427.108299	1.036483	0.902053	448.797211
8427.109162	1.522306	0.902053	1762.547241
8427.110127	1.517318	0.902053	3226.759277
8427.111023	1.478189	0.902053	4551.216309
8427.111948	1.438627	0.902053	5881.945801
8427.112816	1.401628	0.902053	7098.559082
8427.113819	1.362451	0.902053	8465.097656
8427.114753	1.139462	0.902053	9529.354492
8427.115634	0.165439	0.902053	9675.106445
8427.116541	0.094805	0.902053	9761.094727
8427.117507	0.094918	0.902053	9852.786133
8427.118437	0.094805	0.902053	9940.954102
8427.119298	0.094955	0.902053	10022.709961
8427.120205	0.094838	0.902053	10108.727539
8427.121159	0.095006	0.902053	10199.363281
8427.122080	0.094958	0.902053	10286.820312
8427.122958	0.094995	0.902053	10370.225586
8427.123928	0.094973	0.902053	10462.349609
8428.130258	1.046536	0.779508	463.615265
8428.131126	1.523672	0.779508	1786.162354
8428.131994	1.520962	0.779508	3106.357422
8428.133024	1.477522	0.779508	4628.205078
8428.133926	1.437810	0.779508	5925.109863
8428.134804	1.401116	0.779508	7155.289551
8428.135692	1.364385	0.779508	8366.863281
8428.136742	1.098944	0.779508	9520.754883
8428.137644	0.146704	0.779508	9653.082031
8428.138521	0.094830	0.779508	9736.248047
8428.139515	0.094900	0.779508	9830.578125
8428.140432	0.094856	0.779508	9917.560547
8428.141348	0.094933	0.779508	10004.519531
8428.142204	0.094911	0.779508	10085.763672
8428.143215	0.094856	0.779508	10181.663086
8428.144109	0.094849	0.779508	10266.458008
8428.145028	0.094926	0.779508	10353.694336
8428.145905	0.094962	0.779508	10436.976562
8429.143529	1.094758	0.841399	506.873077
8429.144469	1.528359	0.841399	1943.530762
8429.145394	1.515392	0.841399	3345.268066
8429.146258	1.476808	0.841399	4621.229980
8429.147238	1.435485	0.841399	6028.004883
8429.148194	1.395949	0.841399	7362.531738
8429.149068	1.360679	0.841399	8551.764648
8429.149974	1.103229	0.841399	9551.290039
8429.150934	0.141881	0.841399	9687.496094
8429.151862	0.094940	0.841399	9775.600586
8429.152738	0.094984	0.841399	9858.806641
8429.153707	0.094933	0.841399	9950.796875
8429.154651	0.094973	0.841399	10040.451172
8429.155573	0.095002	0.841399	10128.042969
8429.156433	0.094948	0.841399	10209.698242
8429.157400	0.094958	0.841399	10301.523437
8429.158350	0.095021	0.841399	10391.792969
8429.159214	0.094991	0.841399	10473.865234
8430.154182	1.028566	0.706486	443.311859
8430.155050	1.522383	0.706486	1764.740234
8430.156090	1.516106	0.706486	3341.490234
8430.156976	1.475658	0.706486	4648.923340
8430.157891	1.436488	0.706486	5963.310059
8430.158772	1.398402	0.706486	7195.302246
8430.159818	1.358291	0.706486	8616.074219
8430.160711	1.060712	0.706486	9563.290039
8430.161589	0.142712	0.706486	9688.591797
8430.162582	0.094918	0.706486	9782.845703
8430.163518	0.094926	0.706486	9871.696289
8430.164438	0.095013	0.706486	9959.108398
8430.165301	0.094940	0.706486	10041.041992
8430.166322	0.094951	0.706486	10137.987305
8430.167199	0.094915	0.706486	10221.227539
8430.168065	0.094988	0.706486	10303.487305
8430.169008	0.095006	0.706486	10393.078125
8430.169973	0.094907	0.706486	10484.664062
8431.178763	1.105144	0.754560	548.151428
8431.179758	1.532043	0.754560	2072.534668
8431.180659	1.512642	0.754560	3435.424805
8431.181646	1.469319	0.754560	4885.642578
8431.182696	1.424700	0.754560	6381.577148
8431.183597	1.386951	0.754560	7631.219727
8431.184469	1.351102	0.754560	8809.380859
8431.185593	0.606676	0.754560	9491.285156
8431.186558	0.096486	0.754560	9584.393555
8431.187425	0.094907	0.754560	9666.677734
8431.188489	0.094999	0.754560	9767.756836
8431.189507	0.094904	0.754560	9864.369141
8431.190386	0.094878	0.754560	9947.766602
8431.191247	0.094948	0.754560	10029.516602
8431.192301	0.094926	0.754560	10129.568359
8431.193252	0.094900	0.754560	10219.818359
8431.194122	0.094918	0.754560	10302.397461
8431.195030	0.094889	0.754560	10388.556641
8432.168992	1.117075	0.800270	574.176575
8432.169927	1.530421	0.800270	2005.120361
8432.170793	1.515139	0.800270	3317.230957
8432.171851	1.469707	0.800270	4872.181152
8432.172872	1.425901	0.800270	6328.025879
8432.173750	1.389196	0.800270	7547.739746
8432.174723	1.351329	0.800270	8862.583008
8432.175786	0.629685	0.800270	9531.938477
8432.176691	0.097892	0.800270	9620.530273
8432.177565	0.094940	0.800270	9703.507812
8432.178636	0.094980	0.800270	9805.231445
8432.179616	0.094871	0.800270	9898.205078
8432.180504	0.094933	0.800270	9982.505859
8432.181473	0.095039	0.800270	10074.598633
8432.182517	0.094999	0.800270	10173.777344
8432.183424	0.094911	0.800270	10259.861328
8432.184289	0.094871	0.800270	10341.924805
8432.185388	0.094995	0.800270	10446.324219
8433.214928	1.039742	0.667569	455.407196
8433.215811	1.524551	0.667569	1801.585571
8433.216676	1.520998	0.667569	3117.249268
8433.217603	1.480821	0.667569	4489.970703
8433.218560	1.439260	0.667569	5867.342773
8433.219488	1.400885	0.667569	7167.364258
8433.220355	1.365604	0.667569	8351.342773
8433.221325	1.173929	0.667569	9490.054687
8433.222268	0.171746	0.667569	9652.010742
8433.223127	0.094816	0.667569	9733.457031
8433.224087	0.094958	0.667569	9824.617187
8433.224995	0.094940	0.667569	9910.823242
8433.225918	0.094988	0.667569	9998.497070
8433.226795	0.094969	0.667569	10081.785156
8433.227753	0.094969	0.667569	10172.765625
8433.228704	0.094977	0.667569	10263.088867
8433.229589	0.094977	0.667569	10347.143555
8433.230500	0.094999	0.667569	10433.687500
8434.191921	1.135953	0.841068	603.191223
8434.192885	1.531384	0.841068	2079.445801
8434.193758	1.513466	0.841068	3400.701172
8434.194629	1.473314	0.841068	4683.958008
8434.195755	1.428351	0.841068	6292.281250
8434.196631	1.390708	0.841068	7510.541504
8434.197508	1.356035	0.841068	8699.784180
8434.198547	0.810901	0.841068	9542.310547
8434.199511	0.101206	0.841068	9639.873047
8434.200393	0.094915	0.841068	9723.587891
8434.201254	0.094856	0.841068	9805.258789
8434.202362	0.094980	0.841068	9910.497070
8434.203259	0.095010	0.841068	9995.720703
8434.204130	0.094962	0.841068	10078.432617
8434.205140	0.095061	0.841068	10174.444336
8434.206116	0.094940	0.841068	10267.105469
8434.206994	0.094926	0.841068	10350.450195
8434.207863	0.094944	0.841068	10432.956055
8435.250163	1.101991	0.626915	519.037720
8435.251123	1.529436	0.626915	1987.296265
8435.252055	1.514546	0.626915	3398.853027
8435.252919	1.475402	0.626915	4673.600098
8435.253888	1.434023	0.626915	6063.168945
8435.254841	1.394549	0.626915	7392.174805
8435.255737	1.359078	0.626915	8609.909180
8435.256658	1.048506	0.626915	9575.583008
8435.257624	0.125790	0.626915	9697.095703
8435.258557	0.094874	0.626915	9785.613281
8435.259432	0.094926	0.626915	9868.672852
8435.260419	0.094889	0.626915	9962.328125
8435.261364	0.094860	0.626915	10051.970703
8435.262293	0.094962	0.626915	10140.190430
8435.263154	0.094980	0.626915	10221.968750
8435.264120	0.094933	0.626915	10313.673828
8435.265047	0.094933	0.626915	10401.676758
8435.265938	0.094969	0.626915	10486.294922
8436.218900	1.099266	0.850757	555.129517
8436.219785	1.528158	0.850757	1907.549316
8436.220671	1.515725	0.850757	3250.481934
8436.221768	1.469656	0.850757	4862.694336
8436.222735	1.428182	0.850757	6243.746582
8436.223597	1.391971	0.850757	7443.625977
8436.224621	1.351655	0.850757	8827.720703
8436.225677	0.673136	0.850757	9538.552734
8436.226546	0.099723	0.850757	9625.211914
8436.227479	0.094922	0.850757	9713.774414
8436.228544	0.094980	0.850757	9814.928711
8436.229481	0.094969	0.850757	9903.915039
8436.230351	0.095039	0.850757	9986.598633
8436.231397	0.094878	0.850757	10085.840820
8436.232411	0.094882	0.850757	10182.050781
8436.233300	0.094830	0.850757	10266.354492
8436.234257	0.094999	0.850757	10357.268555
8436.235304	0.094911	0.850757	10456.640625
8437.282756	1.036714	0.635628	445.786957
8437.283631	1.523665	0.635628	1778.993530
8437.284496	1.520914	0.635628	3094.584473
8437.285549	1.476680	0.635628	4649.528320
8437.286454	1.437330	0.635628	5950.312500
8437.287333	1.400391	0.635628	7181.255859
8437.288277	1.363290	0.635628	8468.201172
8437.289278	1.079326	0.635628	9548.606445
8437.290207	0.137344	0.635628	9676.199219
8437.291073	0.094889	0.635628	9758.373047
8437.292138	0.094980	0.635628	9859.527344
8437.293015	0.094929	0.635628	9942.780273
8437.293877	0.094966	0.635628	10024.640625
8437.294748	0.095010	0.635628	10107.394531
8437.295803	0.094944	0.635628	10207.560547
8437.296704	0.094834	0.635628	10293.005859
8437.297577	0.094896	0.635628	10375.850586
8437.298569	0.094867	0.635628	10469.958984
8438.247358	1.031858	0.849105	440.603363
8438.248225	1.521522	0.849105	1759.763184
8438.249194	1.517490	0.849105	3230.211426
8438.250126	1.477361	0.849105	4607.111816
8438.251016	1.438693	0.849105	5887.548340
8438.251934	1.400738	0.849105	7173.426270
8438.252890	1.361898	0.849105	8475.400391
8438.253838	1.117159	0.849105	9534.467773
8438.254734	0.157903	0.849105	9675.948242
8438.255668	0.094812	0.849105	9764.502930
8438.256623	0.094900	0.849105	9855.132812
8438.257544	0.094969	0.849105	9942.599609
8438.258402	0.094900	0.849105	10024.023437
8438.259332	0.094951	0.849105	10112.328125
8438.260262	0.094955	0.849105	10200.635742
8438.261189	0.094962	0.849105	10288.666016
8438.262049	0.094915	0.849105	10370.292969
8438.263027	0.094937	0.849105	10463.140625
8439.312329	1.039937	0.639217	455.492218
8439.313205	1.524258	0.639217	1790.741943
8439.314224	1.515425	0.639217	3334.959961
8439.315283	1.470092	0.639217	4891.787109
8439.316171	1.431083	0.639217	6162.588867
8439.317059	1.392949	0.639217	7399.527832
8439.318163	1.350732	0.639217	8890.736328
8439.319117	0.741998	0.639217	9598.602539
8439.319981	0.103059	0.639217	9687.645508
8439.321014	0.095024	0.639217	9785.805664
8439.322044	0.094966	0.639217	9883.620117
8439.322922	0.094977	0.639217	9967.009766
8439.323789	0.094951	0.639217	10049.332031
8439.324799	0.095021	0.639217	10145.302734
8439.325746	0.094889	0.639217	10235.162109
8439.326623	0.094984	0.639217	10318.462891
8439.327528	0.095028	0.639217	10404.462891
8439.328623	0.095046	0.639217	10508.539062
8440.278990	1.039237	0.838821	458.303589
8440.279915	1.525931	0.838821	1869.790039
8440.280790	1.518680	0.838821	3198.635254
8440.281839	1.474387	0.838821	4745.267578
8440.282743	1.434221	0.838821	6041.803711
8440.283659	1.396403	0.838821	7320.908203
8440.284532	1.361360	0.838821	8509.375000
8440.285500	1.039991	0.838821	9516.086914
8440.286444	0.132158	0.838821	9640.844727
8440.287368	0.094929	0.838821	9728.559570
8440.288243	0.094926	0.838821	9811.619141
8440.289211	0.094962	0.838821	9903.542969
8440.290134	0.094889	0.838821	9991.125000
8440.291015	0.094911	0.838821	10074.741211
8440.292024	0.094856	0.838821	10170.451172
8440.292930	0.094911	0.838821	10256.440430
8440.293853	0.094838	0.838821	10343.975586
8440.294715	0.094940	0.838821	10425.814453
8441.337882	1.113860	0.650609	562.499268
8441.338841	1.531725	0.650609	2031.423340
8441.339705	1.515370	0.650609	3340.702881
8441.340771	1.468861	0.650609	4906.508789
8441.341816	1.424689	0.650609	6395.308594
8441.342692	1.387613	0.650609	7610.857910
8441.343629	1.350670	0.650609	8876.435547
8441.344707	0.598517	0.650609	9521.636719
8441.345640	0.096844	0.650609	9611.992187
8441.346516	0.094834	0.650609	9695.066406
8441.347459	0.094816	0.650609	9784.477539
8441.348490	0.094904	0.650609	9882.323242
8441.349378	0.094882	0.650609	9966.578125
8441.350240	0.094812	0.650609	10048.305664
8441.351289	0.094991	0.650609	10147.952148
8441.352248	0.094845	0.650609	10238.908203
8441.353123	0.094871	0.650609	10321.919922
8441.354038	0.094874	0.650609	10408.729492
8442.311615	1.040314	0.842813	443.173645
8442.312602	1.526646	0.842813	1949.972900
8442.313531	1.514886	0.842813	3357.302490
8442.314407	1.476149	0.842813	4650.408691
8442.315325	1.436821	0.842813	5969.410645
8442.316269	1.397329	0.842813	7288.489258
8442.317210	1.359895	0.842813	8568.150391
8442.318094	1.133101	0.842813	9569.811523
8442.319018	0.145016	0.842813	9703.806641
8442.319972	0.094764	0.842813	9794.211914
8442.320894	0.094863	0.842813	9881.675781
8442.321758	0.094929	0.842813	9963.694336
8442.322720	0.094885	0.842813	10054.973633
8442.323679	0.094915	0.842813	10145.997070
8442.324566	0.094933	0.842813	10230.202148
8442.325468	0.094926	0.842813	10315.825195
8442.326397	0.094907	0.842813	10403.994141
8442.327347	0.094922	0.842813	10494.169922
8443.359743	1.077198	0.687593	529.981628
8443.360675	1.529088	0.687593	1955.091797
8443.361582	1.515150	0.687593	3329.333008
8443.362461	1.476412	0.687593	4627.099609
8443.363416	1.435624	0.687593	5998.120117
8443.364372	1.396432	0.687593	7333.108887
8443.365262	1.360294	0.687593	8543.770508
8443.366143	1.101053	0.687593	9513.798828
8443.367105	0.142566	0.687593	9650.947266
8443.368058	0.094684	0.687593	9741.180664
8443.368945	0.094885	0.687593	9825.343750
8443.369924	0.094951	0.687593	9918.300781
8443.370974	0.094915	0.687593	10017.960937
8443.371941	0.094849	0.687593	10109.679687
8443.372799	0.094852	0.687593	10191.062500
8443.373873	0.094904	0.687593	10292.989258
8443.374910	0.094933	0.687593	10391.434570
8443.375785	0.094922	0.687593	10474.491211
8444.346927	1.125179	0.845443	607.596863
8444.347993	1.532366	0.845443	2241.098633
8444.348903	1.507295	0.845443	3612.736816
8444.349771	1.467352	0.845443	4886.398437
8444.350859	1.422623	0.845443	6434.212402
8444.351838	1.382285	0.845443	7787.469727
8444.352706	1.348345	0.845443	8957.833008
8444.353741	0.591196	0.845443	9569.720703
8444.354775	0.096119	0.845443	9669.108398
8444.355654	0.094871	0.845443	9752.500000
8444.356536	0.094889	0.845443	9836.192383
8444.357627	0.095028	0.845443	9939.868164
8444.358582	0.094969	0.845443	10030.564453
8444.359440	0.094874	0.845443	10111.966797
8444.360458	0.095035	0.845443	10208.712891
8444.361492	0.094900	0.845443	10306.839844
8444.362377	0.094911	0.845443	10390.835937
8444.363301	0.094926	0.845443	10478.546875
8445.381068	1.048601	0.693257	461.384521
8445.381943	1.524067	0.693257	1794.943481
8445.382854	1.519321	0.693257	3179.045166
8445.383818	1.478207	0.693257	4604.036621
8445.384751	1.437755	0.693257	5945.462402
8445.385624	1.400592	0.693257	7168.179199
8445.386595	1.362957	0.693257	8491.610352
8445.387501	1.110648	0.693257	9497.857422
8445.388427	0.155669	0.693257	9642.006836
8445.389298	0.094808	0.693257	9724.584961
8445.390369	0.094958	0.693257	9826.285156
8445.391407	0.094830	0.693257	9924.718750
8445.392290	0.094856	0.693257	10008.476562
8445.393213	0.094915	0.693257	10096.083008
8445.394275	0.094969	0.693257	10196.940430
8445.395226	0.094838	0.693257	10287.130859
8445.396089	0.094907	0.693257	10369.036133
8445.397126	0.094999	0.693257	10467.549805
8446.382526	1.027233	0.771805	434.519409
8446.383565	1.526854	0.771805	2020.921021
8446.384611	1.508459	0.771805	3598.769531
8446.385498	1.468619	0.771805	4901.435059
8446.386435	1.428413	0.771805	6239.857910
8446.387518	1.384204	0.771805	7738.951172
8446.388466	1.347070	0.771805	9015.973633
8446.389330	0.728500	0.771805	9645.397461
8446.390357	0.098470	0.771805	9746.526367
8446.391387	0.094929	0.771805	9844.303711
8446.392278	0.094933	0.771805	9928.888672
8446.393235	0.094922	0.771805	10019.728516
8446.394279	0.094984	0.771805	10118.891602
8446.395200	0.094907	0.771805	10206.300781
8446.396064	0.095013	0.771805	10288.392578
8446.397132	0.095017	0.771805	10389.871094
8446.398133	0.094918	0.771805	10484.883789
8446.399024	0.094907	0.771805	10569.446289
8447.403959	1.032162	0.711747	433.507965
8447.404936	1.528411	0.711747	1926.765015
8447.405867	1.515571	0.711747	3337.761963
8447.406745	1.476885	0.711747	4634.466797
8447.407633	1.438088	0.711747	5911.489258
8447.408598	1.398201	0.711747	7260.752930
8447.409553	1.360492	0.711747	8560.022461
8447.410435	1.134833	0.711747	9560.945312
8447.411358	0.160012	0.711747	9708.636719
8447.412305	0.094827	0.711747	9798.437500
8447.413229	0.094973	0.711747	9886.192383
8447.414106	0.094911	0.711747	9969.429687
8447.415045	0.094801	0.711747	10058.448242
8447.415977	0.094900	0.711747	10146.894531
8447.416865	0.094896	0.711747	10231.162109
8447.417983	0.094889	0.711747	10337.248047
8447.418921	0.094867	0.711747	10426.233398
8447.419846	0.094885	0.711747	10514.001953
8448.416231	1.097644	0.733444	512.599731
8448.417156	1.528773	0.733444	1926.714966
8448.418033	1.517666	0.733444	3257.708008
8448.418939	1.477855	0.733444	4596.644531
8448.419909	1.436235	0.733444	5989.792969
8448.420840	1.397596	0.733444	7290.955078
8448.421708	1.362458	0.733444	8473.569336
8448.422674	1.117987	0.733444	9553.544922
8448.423641	0.147334	0.733444	9696.016602
8448.424531	0.094867	0.733444	9780.448242
8448.425420	0.094863	0.733444	9864.781250
8448.426349	0.094944	0.733444	9952.984375
8448.427301	0.094958	0.733444	10043.384766
8448.428193	0.094915	0.733444	10128.048828
8448.429102	0.094929	0.733444	10214.339844
8448.430056	0.094922	0.733444	10304.895508
8448.430979	0.094926	0.733444	10392.511719
8448.431841	0.094980	0.733444	10474.384766
8449.426403	1.062283	0.716029	484.400970
8449.427311	1.527191	0.716029	1871.090576
8449.428190	1.518072	0.716029	3205.476318
8449.429151	1.477159	0.716029	4625.026367
8449.430088	1.436027	0.716029	5970.583496
8449.430996	1.398318	0.716029	7240.255859
8449.431865	1.362810	0.716029	8424.538086
8449.432838	1.112563	0.716029	9507.062500
8449.433769	0.150146	0.716029	9646.848633
8449.434633	0.094819	0.716029	9728.772461
8449.435598	0.094944	0.716029	9820.393555
8449.436546	0.094937	0.716029	9910.393555
8449.437413	0.094958	0.716029	9992.722656
8449.438292	0.094871	0.716029	10076.114258
8449.439264	0.094889	0.716029	10168.346680
8449.440218	0.094849	0.716029	10258.832031
8449.441109	0.094841	0.716029	10343.335937
8449.442014	0.094882	0.716029	10429.204102
8450.447366	1.099113	0.701656	546.258972
8450.448267	1.529374	0.701656	1924.224854
8450.449138	1.515861	0.701656	3244.539551
8450.450241	1.469410	0.701656	4865.299316
8450.451225	1.427607	0.701656	6270.064941
8450.452090	1.391334	0.701656	7473.568848
8450.453158	1.349414	0.701656	8914.743164
8450.454213	0.591757	0.701656	9539.046875
8450.455098	0.097504	0.701656	9625.337891
8450.456022	0.094849	0.701656	9712.978516
8450.457090	0.094922	0.701656	9814.355469
8450.458044	0.094849	0.701656	9904.840820
8450.458903	0.094926	0.701656	9986.381836
8450.459941	0.095002	0.701656	10084.994141
8450.460949	0.094871	0.701656	10180.624023
8450.461832	0.094893	0.701656	10264.414062
8450.462693	0.094889	0.701656	10346.113281
8450.463750	0.094874	0.701656	10446.395508
8451.451837	1.030129	0.724783	437.805023
8451.452701	1.521548	0.724783	1752.422363
8451.453778	1.513594	0.724783	3382.562988
8451.454709	1.472794	0.724783	4753.734375
8451.455591	1.434851	0.724783	6019.272949
8451.456584	1.394557	0.724783	7404.067871
8451.457596	1.353871	0.724783	8774.185547
8451.458486	0.940042	0.724783	9610.822266
8451.459342	0.120183	0.724783	9713.699219
8451.460370	0.094801	0.724783	9811.154297
8451.461307	0.094871	0.724783	9900.047852
8451.462181	0.094834	0.724783	9982.932617
8451.463127	0.095002	0.724783	10072.804687
8451.464151	0.094885	0.724783	10169.966797
8451.465043	0.094841	0.724783	10254.565430
8451.465916	0.094904	0.724783	10337.416016
8451.466848	0.094940	0.724783	10425.900391
8451.467847	0.094955	0.724783	10520.760742
8452.477905	1.052443	0.682063	468.336945
8452.478829	1.526993	0.682063	1879.278809
8452.479703	1.518164	0.682063	3206.154297
8452.480750	1.473501	0.682063	4748.909668
8452.481631	1.435210	0.682063	6013.329590
8452.482505	1.398629	0.682063	7235.731445
8452.483463	1.360726	0.682063	8539.307617
8452.484431	1.055761	0.682063	9561.284180
8452.485356	0.134290	0.682063	9685.501953
8452.486233	0.094801	0.682063	9768.642578
8452.487243	0.094940	0.682063	9864.532227
8452.488143	0.094907	0.682063	9949.949219
8452.489051	0.094933	0.682063	10036.148437
8452.489921	0.094980	0.682063	10118.781250
8452.490932	0.094929	0.682063	10214.754883
8452.491855	0.094937	0.682063	10302.380859
8452.492729	0.094940	0.682063	10385.358398
8452.493715	0.094958	0.682063	10478.987305
8453.478387	1.080985	0.745859	515.629883
8453.479266	1.526232	0.745859	1857.187500
8453.480251	1.514703	0.745859	3349.170410
8453.481184	1.473219	0.745859	4723.683594
8453.482098	1.434393	0.745859	6034.719238
8453.482983	1.396556	0.745859	7270.671875
8453.484032	1.355980	0.745859	8693.094727
8453.484932	0.998229	0.745859	9591.500977
8453.485807	0.126848	0.745859	9702.493164
8453.486755	0.094907	0.745859	9792.464844
8453.487712	0.094882	0.745859	9883.266602
8453.488631	0.094852	0.745859	9970.435547
8453.489492	0.094893	0.745859	10052.137695
8453.490524	0.094977	0.745859	10150.153320
8453.491401	0.094893	0.745859	10233.374023
8453.492261	0.094969	0.745859	10315.047852
8453.493134	0.094948	0.745859	10397.937500
8453.494170	0.094951	0.745859	10496.306641
8454.507498	1.065447	0.654082	485.843719
8454.508368	1.525543	0.654082	1813.066406
8454.509255	1.519358	0.654082	3160.736816
8454.510126	1.479946	0.654082	4449.770020
8454.511144	1.437568	0.654082	5913.214844
8454.512075	1.399047	0.654082	7215.727539
8454.512959	1.363619	0.654082	8421.166992
8454.513969	1.093048	0.654082	9525.145508
8454.514874	0.143009	0.654082	9654.568359
8454.515788	0.094805	0.654082	9741.219727
8454.516654	0.094922	0.654082	9823.421875
8454.517645	0.094885	0.654082	9917.453125
8454.518560	0.094904	0.654082	10004.290039
8454.519427	0.094849	0.654082	10086.523437
8454.520322	0.094944	0.654082	10171.498047
8454.521281	0.094900	0.654082	10262.506836
8454.522214	0.094940	0.654082	10351.085937
8454.523110	0.094937	0.654082	10436.149414
8455.505416	1.083662	0.739180	536.412720
8455.506354	1.529066	0.739180	1970.676758
8455.507222	1.515981	0.739180	3286.548584
8455.508130	1.476584	0.739180	4627.287109
8455.509068	1.435140	0.739180	5973.448730
8455.510025	1.395787	0.739180	7309.217285
8455.510916	1.360726	0.739180	8521.625000
8455.511829	1.091726	0.739180	9518.371094
8455.512794	0.138497	0.739180	9652.021484
8455.513715	0.094871	0.739180	9739.397461
8455.514578	0.094977	0.739180	9821.362305
8455.515539	0.094926	0.739180	9912.585937
8455.516492	0.094948	0.739180	10003.071289
8455.517377	0.094911	0.739180	10087.067383
8455.518250	0.094922	0.739180	10169.934570
8455.519199	0.094896	0.739180	10259.991211
8455.520128	0.095002	0.739180	10348.248047
8455.521003	0.094878	0.739180	10431.266602
8456.533995	1.103463	0.654372	512.006897
8456.534956	1.530015	0.654372	1982.351074
8456.535879	1.514403	0.654372	3380.145020
8456.536748	1.475489	0.654372	4662.345215
8456.537715	1.434606	0.654372	6049.608887
8456.538657	1.395780	0.654372	7364.433594
8456.539555	1.359840	0.654372	8585.570312
8456.540488	1.060492	0.654372	9575.009766
8456.541463	0.130994	0.654372	9702.728516
8456.542358	0.094871	0.654372	9787.637695
8456.543250	0.094969	0.654372	9872.350586
8456.544157	0.094966	0.654372	9958.484375
8456.545116	0.094948	0.654372	10049.539062
8456.546036	0.094904	0.654372	10136.850586
8456.546898	0.094958	0.654372	10218.705078
8456.547854	0.094973	0.654372	10309.499023
8456.548799	0.094969	0.654372	10399.245117
8456.549687	0.094900	0.654372	10483.516602
8457.534466	1.106993	0.731285	546.854736
8457.535398	1.528956	0.731285	1971.842041
8457.536324	1.514619	0.731285	3374.379395
8457.537190	1.475343	0.731285	4652.026367
8457.538155	1.434287	0.731285	6036.113281
8457.539121	1.394663	0.731285	7383.357910
8457.540019	1.358709	0.731285	8603.478516
8457.540933	1.061400	0.731285	9573.598633
8457.541848	0.131389	0.731285	9693.819336
8457.542770	0.094885	0.731285	9781.303711
8457.543632	0.094933	0.731285	9863.135742
8457.544593	0.094911	0.731285	9954.344727
8457.545539	0.094948	0.731285	10044.165039
8457.546429	0.094969	0.731285	10128.687500
8457.547359	0.094929	0.731285	10216.971680
8457.548288	0.094940	0.731285	10305.170898
8457.549201	0.094922	0.731285	10391.834961
8457.550092	0.094937	0.731285	10476.423828
8458.559527	1.123777	0.650505	582.116455
8458.560486	1.531959	0.650505	2051.265137
8458.561349	1.514674	0.650505	3358.428711
8458.562395	1.469198	0.650505	4895.209961
8458.563450	1.424392	0.650505	6397.943359
8458.564323	1.387460	0.650505	7609.195801
8458.565270	1.350564	0.650505	8888.179687
8458.566340	0.598685	0.650505	9528.773437
8458.567274	0.096870	0.650505	9619.250000
8458.568141	0.094852	0.650505	9701.487305
8458.569170	0.094896	0.650505	9799.135742
8458.570187	0.094856	0.650505	9895.604492
8458.571072	0.094951	0.650505	9979.636719
8458.572027	0.094918	0.650505	10070.283203
8458.573076	0.094882	0.650505	10169.814453
8458.574009	0.094937	0.650505	10258.390625
8458.574874	0.094944	0.650505	10340.516602
8458.575931	0.095010	0.650505	10440.942383
8459.563967	1.034374	0.699042	440.643219
8459.564832	1.522148	0.699042	1757.301514
8459.565923	1.512715	0.699042	3407.673340
8459.566921	1.468586	0.699042	4873.322266
8459.567823	1.430409	0.699042	6163.551270
8459.568820	1.389558	0.699042	7548.940430
8459.569884	1.348381	0.699042	8983.618164
8459.570783	0.712500	0.699042	9624.155273
8459.571645	0.101935	0.699042	9712.023437
8459.572749	0.094973	0.699042	9816.874023
8459.573695	0.094885	0.699042	9906.635742
8459.574557	0.094904	0.699042	9988.442383
8459.575594	0.094984	0.699042	10086.941406
8459.576618	0.094937	0.699042	10184.156250
8459.577497	0.094937	0.699042	10267.605469
8459.578399	0.094926	0.699042	10353.228516
8459.579468	0.094962	0.699042	10454.743164
8459.580414	0.094911	0.699042	10544.529297
8460.583399	1.078883	0.648926	500.601746
8460.584271	1.525964	0.648926	1831.242676
8460.585247	1.515304	0.648926	3310.179199
8460.586336	1.468901	0.648926	4909.812500
8460.587230	1.429772	0.648926	6188.028320
8460.588104	1.392096	0.648926	7404.720215
8460.589200	1.350242	0.648926	8884.584961
8460.590178	0.700463	0.648926	9569.637695
8460.591062	0.100642	0.648926	9658.605469
8460.592065	0.094874	0.648926	9753.764648
8460.593117	0.094867	0.648926	9853.564453
8460.594007	0.094885	0.648926	9938.012695
8460.594875	0.094867	0.648926	10020.357422
8460.595973	0.094962	0.648926	10124.625977
8460.596928	0.094852	0.648926	10215.209961
8460.597801	0.094885	0.648926	10298.044922
8460.598861	0.094958	0.648926	10398.701172
8460.599883	0.094948	0.648926	10495.737305
8461.596096	1.031202	0.628969	436.198639
8461.596964	1.522515	0.628969	1757.741211
8461.597960	1.516516	0.628969	3268.191406
8461.598898	1.475687	0.628969	4652.386230
8461.599796	1.437081	0.628969	5942.885254
8461.600709	1.399156	0.628969	7220.314941
8461.601669	1.361115	0.628969	8526.984375
8461.602599	1.106938	0.628969	9556.437500
8461.603468	0.156801	0.628969	9692.697266
8461.604441	0.094823	0.628969	9784.959961
8461.605350	0.094896	0.628969	9871.220703
8461.606274	0.094955	0.628969	9958.958984
8461.607130	0.094962	0.628969	10040.247070
8461.608087	0.094969	0.628969	10131.132812
8461.609012	0.094874	0.628969	10218.891602
8461.609888	0.094918	0.628969	10302.040039
8461.610859	0.094918	0.628969	10394.206055
8461.611791	0.094955	0.628969	10482.704102
8462.605308	1.077946	0.657558	512.024170
8462.606201	1.527334	0.657558	1875.933350
8462.607066	1.518274	0.657558	3189.240234
8462.608019	1.477394	0.657558	4597.196289
8462.608970	1.436382	0.657558	5963.195312
8462.609875	1.398464	0.657558	7228.805664
8462.610757	1.363118	0.657558	8431.075195
8462.611717	1.115354	0.657558	9501.814453
8462.612667	0.147382	0.657558	9641.827148
8462.613555	0.094779	0.657558	9725.991211
8462.614479	0.094907	0.657558	9813.685547
8462.615427	0.094929	0.657558	9903.678711
8462.616351	0.094933	0.657558	9991.396484
8462.617210	0.095013	0.657558	10073.012695
8462.618249	0.095002	0.657558	10171.720703
8462.619317	0.094969	0.657558	10273.148437
8462.620235	0.094969	0.657558	10360.330078
8462.621101	0.094988	0.657558	10442.589844
8463.627711	1.035015	0.596271	442.986267
8463.628577	1.522537	0.596271	1761.502930
8463.629629	1.514813	0.596271	3355.086426
8463.630508	1.475885	0.596271	4652.389648
8463.631385	1.438147	0.596271	5913.644531
8463.632338	1.398596	0.596271	7246.506836
8463.633325	1.359467	0.596271	8588.300781
8463.634232	1.087394	0.596271	9574.566406
8463.635113	0.151165	0.596271	9707.742187
8463.636130	0.094812	0.596271	9804.166016
8463.637030	0.094948	0.596271	9889.619141
8463.637905	0.094904	0.596271	9972.660156
8463.638772	0.094896	0.596271	10054.935547
8463.639810	0.094819	0.596271	10153.358398
8463.640695	0.094929	0.596271	10237.371094
8463.641568	0.094911	0.596271	10320.228516
8463.642554	0.094874	0.596271	10413.774414
8463.643483	0.094966	0.596271	10501.998047
8464.626228	1.125513	0.681160	616.780945
8464.627115	1.529989	0.681160	1973.881104
8464.628027	1.514150	0.681160	3354.786133
8464.628911	1.475109	0.681160	4658.782227
8464.629880	1.434294	0.681160	6048.613281
8464.630815	1.395000	0.681160	7352.938477
8464.631704	1.359408	0.681160	8561.452148
8464.632587	1.066959	0.681160	9503.577148
8464.633571	0.136069	0.681160	9637.469727
8464.634515	0.094750	0.681160	9726.913086
8464.635406	0.094937	0.681160	9811.501953
8464.636318	0.094867	0.681160	9898.020508
8464.637268	0.094929	0.681160	9988.203125
8464.638177	0.094926	0.681160	10074.490234
8464.639052	0.094929	0.681160	10157.553711
8464.639984	0.094860	0.681160	10245.962891
8464.640915	0.094944	0.681160	10334.355469
8464.641841	0.094937	0.681160	10422.266602
8465.662904	1.027222	0.563650	432.460327
8465.663836	1.523181	0.563650	1852.065063
8465.664771	1.517249	0.563650	3270.692383
8465.665694	1.476910	0.563650	4633.880859
8465.666565	1.438986	0.563650	5887.237305
8465.667528	1.398541	0.563650	7234.032715
8465.668467	1.361239	0.563650	8512.236328
8465.669391	1.125366	0.563650	9552.074219
8465.670254	0.163239	0.563650	9692.949219
8465.671217	0.094856	0.563650	9784.295898
8465.672161	0.094922	0.563650	9873.902344
8465.673057	0.094984	0.563650	9959.007812
8465.673968	0.094929	0.563650	10045.488281
8465.674903	0.094948	0.563650	10134.264648
8465.675810	0.094984	0.563650	10220.415039
8465.676670	0.094929	0.563650	10302.053711
8465.677645	0.094966	0.563650	10394.645508
8465.678593	0.095002	0.563650	10484.708008
8466.648506	1.051135	0.726169	446.732513
8466.649551	1.531212	0.726169	2046.849121
8466.650449	1.513059	0.726169	3405.576172
8466.651329	1.474687	0.726169	4703.301270
8466.652339	1.432390	0.726169	6150.015137
8466.653256	1.392839	0.726169	7427.249023
8466.654176	1.357039	0.726169	8675.724609
8466.655042	1.034689	0.726169	9571.764648
8466.656069	0.115968	0.726169	9690.864258
8466.656966	0.094768	0.726169	9775.871094
8466.657875	0.094918	0.726169	9862.151367
8466.658753	0.094922	0.726169	9945.493164
8466.659742	0.094940	0.726169	10039.388672
8466.660668	0.094889	0.726169	10127.255859
8466.661541	0.094911	0.726169	10210.113281
8466.662609	0.094940	0.726169	10311.509766
8466.663501	0.094860	0.726169	10396.125000
8466.664424	0.094801	0.726169	10483.625977
8467.696630	1.075616	0.498206	509.842224
8467.697562	1.529059	0.498206	1934.925049
8467.698446	1.516765	0.498206	3275.745361
8467.699377	1.477101	0.498206	4650.926270
8467.700285	1.435887	0.498206	5954.711914
8467.701231	1.396857	0.498206	7276.138184
8467.702128	1.361708	0.498206	8497.589844
8467.703045	1.108586	0.498206	9514.164062
8467.704001	0.145576	0.498206	9653.334961
8467.704919	0.094834	0.498206	9740.392578
8467.705791	0.094969	0.498206	9823.206055
8467.706740	0.094958	0.498206	9913.321289
8467.707664	0.094889	0.498206	10000.999023
8467.708537	0.094929	0.498206	10083.872070
8467.709601	0.094922	0.498206	10184.869141
8467.710527	0.094951	0.498206	10272.793945
8467.711462	0.094911	0.498206	10361.535156
8467.712336	0.094856	0.498206	10444.439453
8468.672958	1.034711	0.761126	440.786774
8468.673885	1.523060	0.761126	1852.663574
8468.674820	1.516000	0.761126	3270.123291
8468.675749	1.475984	0.761126	4641.312500
8468.676632	1.437469	0.761126	5910.598145
8468.677613	1.397487	0.761126	7281.532227
8468.678553	1.360034	0.761126	8559.964844
8468.679456	1.111223	0.761126	9563.399414
8468.680322	0.157500	0.761126	9699.793945
8468.681427	0.094904	0.761126	9804.662109
8468.682455	0.094926	0.761126	9902.245117
8468.683333	0.094962	0.761126	9985.622070
8468.684285	0.094948	0.761126	10076.011719
8468.685344	0.094896	0.761126	10176.506836
8468.686274	0.094889	0.761126	10264.753906
8468.687130	0.094933	0.761126	10346.016602
8468.688172	0.094980	0.761126	10444.986328
8468.689194	0.094790	0.761126	10541.861328
8469.724108	1.046129	0.487378	454.020020
8469.724984	1.525107	0.487378	1790.014038
8469.725932	1.517516	0.487378	3228.619141
8469.726860	1.476943	0.487378	4599.222656
8469.727787	1.437634	0.487378	5931.909668
8469.728654	1.400050	0.487378	7145.752930
8469.729657	1.361525	0.487378	8511.362305
8469.730577	1.128106	0.487378	9549.219727
8469.731446	0.164161	0.487378	9691.875977
8469.732470	0.094838	0.487378	9788.989258
8469.733340	0.094915	0.487378	9871.564453
8469.734247	0.094918	0.487378	9957.655273
8469.735122	0.094889	0.487378	10040.682617
8469.736103	0.094896	0.487378	10133.775391
8469.737026	0.094841	0.487378	10221.313477
8469.737910	0.094856	0.487378	10305.166016
8469.738787	0.094893	0.487378	10388.386719
8469.739735	0.094896	0.487378	10478.348633
8470.698931	1.036806	0.771721	434.421509
8470.699896	1.526594	0.771721	1907.584961
8470.700830	1.514780	0.771721	3322.389648
8470.701722	1.476299	0.771721	4639.248047
8470.702640	1.436719	0.771721	5958.155762
8470.703600	1.396824	0.771721	7299.106445
8470.704529	1.359822	0.771721	8562.380859
8470.705398	1.140608	0.771721	9553.569336
8470.706373	0.150128	0.771721	9699.944336
8470.707291	0.094852	0.771721	9787.018555
8470.708210	0.094977	0.771721	9874.301758
8470.709068	0.094955	0.771721	9955.773437
8470.710010	0.094933	0.771721	10045.200195
8470.710936	0.094937	0.771721	10133.111328
8470.711819	0.095002	0.771721	10216.998047
8470.712783	0.094922	0.771721	10308.502930
8470.713734	0.094889	0.771721	10398.742187
8470.714625	0.094915	0.771721	10483.311523
8471.751637	1.058082	0.448239	468.730438
8471.752500	1.524283	0.448239	1784.187012
8471.753493	1.516542	0.448239	3290.113037
8471.754439	1.475632	0.448239	4686.061035
8471.755316	1.437327	0.448239	5946.596680
8471.756225	1.399501	0.448239	7218.742676
8471.757177	1.361569	0.448239	8514.956055
8471.758098	1.119657	0.448239	9546.160156
8471.758981	0.157097	0.448239	9684.876953
8471.759913	0.094746	0.448239	9773.180664
8471.760851	0.094838	0.448239	9862.138672
8471.761774	0.094893	0.448239	9949.724609
8471.762633	0.094889	0.448239	10031.234375
8471.763609	0.094849	0.448239	10123.806641
8471.764553	0.094896	0.448239	10213.388672
8471.765438	0.094889	0.448239	10297.365234
8471.766320	0.094841	0.448239	10381.015625
8471.767272	0.094830	0.448239	10471.293945
8472.725970	1.048140	0.770250	463.277740
8472.726841	1.523456	0.770250	1790.207764
8472.727823	1.516058	0.770250	3278.977051
8472.728836	1.471827	0.770250	4769.938477
8472.729731	1.433401	0.770250	6052.832031
8472.730603	1.396102	0.770250	7270.233398
8472.731696	1.353959	0.770250	8750.110352
8472.732639	0.884557	0.770250	9584.247070
8472.733517	0.111350	0.770250	9682.012695
8472.734488	0.094944	0.770250	9774.203125
8472.735499	0.094882	0.770250	9870.128906
8472.736392	0.094962	0.770250	9954.929687
8472.737267	0.094819	0.770250	10037.896484
8472.738336	0.095002	0.770250	10139.454102
8472.739257	0.094896	0.770250	10226.853516
8472.740129	0.094845	0.770250	10309.558594
8472.741109	0.094951	0.770250	10402.610352
8472.742130	0.094871	0.770250	10499.473633
8473.777607	1.041786	0.416769	451.093323
8473.778594	1.526093	0.416769	1957.346680
8473.779493	1.515886	0.416769	3320.128418
8473.780412	1.475801	0.416769	4676.389648
8473.781286	1.437729	0.416769	5932.965332
8473.782234	1.397212	0.416769	7257.522461
8473.783188	1.359741	0.416769	8554.715820
8473.784116	1.080791	0.416769	9557.689453
8473.784996	0.146569	0.416769	9686.669922
8473.785962	0.094863	0.416769	9778.307617
8473.786912	0.094944	0.416769	9868.503906
8473.787800	0.094958	0.416769	9952.827148
8473.788710	0.094911	0.416769	10039.196289
8473.789665	0.094867	0.416769	10129.793945
8473.790584	0.094878	0.416769	10216.986328
8473.791456	0.094918	0.416769	10299.754883
8473.792386	0.094969	0.416769	10388.076172
8473.793315	0.094918	0.416769	10476.254883
8474.756095	1.088771	0.718761	525.876282
8474.757020	1.528283	0.718761	1939.537598
8474.757894	1.516560	0.718761	3265.011230
8474.758802	1.476962	0.718761	4606.092773
8474.759761	1.435474	0.718761	5982.711914
8474.760690	1.396762	0.718761	7280.303223
8474.761571	1.361664	0.718761	8479.928711
8474.762516	1.114999	0.718761	9533.602539
8474.763449	0.141599	0.718761	9665.714844
8474.764370	0.094768	0.718761	9752.996094
8474.765232	0.094878	0.718761	9834.781250
8474.766203	0.094827	0.718761	9926.858398
8474.767155	0.094860	0.718761	10017.165039
8474.768038	0.094874	0.718761	10100.939453
8474.768949	0.094911	0.718761	10187.403320
8474.769873	0.094878	0.718761	10275.070312
8474.770812	0.094937	0.718761	10364.215820
8474.771703	0.094940	0.718761	10448.807617
8475.799511	1.072471	0.426554	472.959564
8475.800437	1.527836	0.426554	1887.735474
8475.801304	1.517798	0.426554	3203.666016
8475.802309	1.475574	0.426554	4686.617676
8475.803238	1.435496	0.426554	6020.193359
8475.804108	1.398702	0.426554	7237.064453
8475.805022	1.362572	0.426554	8482.455078
8475.805990	1.094150	0.426554	9541.592773
8475.806925	0.139922	0.426554	9672.419922
8475.807798	0.094761	0.426554	9755.146484
8475.808725	0.094900	0.426554	9843.119141
8475.809673	0.094867	0.426554	9933.052734
8475.810593	0.094918	0.426554	10020.377930
8475.811455	0.094940	0.426554	10102.216797
8475.812421	0.094896	0.426554	10193.886719
8475.813367	0.094860	0.426554	10283.624023
8475.814236	0.094915	0.426554	10366.104492
8475.815116	0.094885	0.426554	10449.603516
8476.787142	1.038809	0.648611	444.610077
8476.788074	1.523166	0.648611	1864.201172
8476.788984	1.516179	0.648611	3243.924316
8476.789907	1.476233	0.648611	4606.487305
8476.790800	1.438121	0.648611	5890.729492
8476.791751	1.398779	0.648611	7220.968750
8476.792708	1.360609	0.648611	8523.071289
8476.793635	1.107154	0.648611	9549.403320
8476.794505	0.155325	0.648611	9684.536133
8476.795478	0.094827	0.648611	9776.802734
8476.796419	0.094937	0.648611	9866.137695
8476.797315	0.095035	0.648611	9951.289062
8476.798180	0.094911	0.648611	10033.386719
8476.799147	0.094904	0.648611	10125.158203
8476.800066	0.094900	0.648611	10212.371094
8476.800964	0.094911	0.648611	10297.601562
8476.801878	0.094940	0.648611	10384.376953
8476.802833	0.094977	0.648611	10475.080078
8477.822463	1.082666	0.429044	534.837036
8477.823397	1.529579	0.429044	1963.463623
8477.824323	1.514777	0.429044	3366.146729
8477.825184	1.475907	0.429044	4636.902344
8477.826142	1.435455	0.429044	6012.068359
8477.827093	1.395608	0.429044	7339.291504
8477.828005	1.359320	0.429044	8578.991211
8477.828911	1.071991	0.429044	9550.214844
8477.829867	0.126903	0.429044	9671.534180
8477.830819	0.094779	0.429044	9761.763672
8477.831712	0.094860	0.429044	9846.473633
8477.832624	0.094889	0.429044	9933.012695
8477.833579	0.094929	0.429044	10023.669922
8477.834499	0.094845	0.429044	10110.927734
8477.835361	0.094922	0.429044	10192.750000
8477.836278	0.094827	0.429044	10279.706055
8477.837229	0.094867	0.429044	10369.924805
8477.838115	0.094911	0.429044	10454.015625
8478.816740	1.076810	0.613871	501.793579
8478.817628	1.526623	0.613871	1857.435181
8478.818496	1.518582	0.613871	3175.563965
8478.819474	1.476793	0.613871	4619.867676
8478.820427	1.436195	0.613871	5988.561523
8478.821320	1.398578	0.613871	7237.491699
8478.822242	1.362488	0.613871	8493.705078
8478.823209	1.094421	0.613871	9552.010742
8478.824140	0.139080	0.613871	9681.494141
8478.825008	0.094786	0.613871	9763.768555
8478.825920	0.094867	0.613871	9850.287109
8478.826870	0.094940	0.613871	9940.480469
8478.827761	0.094948	0.613871	10025.079102
8478.828667	0.094878	0.613871	10111.038086
8478.829618	0.094929	0.613871	10201.315430
8478.830539	0.094871	0.613871	10288.691406
8478.831407	0.094962	0.613871	10371.118164
8478.832367	0.094860	0.613871	10462.183594
8479.844823	1.069545	0.446559	481.295105
8479.845705	1.526052	0.446559	1827.273193
8479.846571	1.519080	0.446559	3142.796143
8479.847652	1.473757	0.446559	4735.927734
8479.848574	1.433602	0.446559	6057.708984
8479.849460	1.397117	0.446559	7295.554687
8479.850463	1.358185	0.446559	8657.814453
8479.851470	0.900864	0.446559	9564.984375
8479.852349	0.113851	0.446559	9665.059570
8479.853213	0.094768	0.446559	9746.939453
8479.854191	0.094940	0.446559	9839.791016
8479.855128	0.094889	0.446559	9928.702148
8479.856040	0.094962	0.446559	10015.307617
8479.856916	0.094841	0.446559	10098.388672
8479.857934	0.094955	0.446559	10195.052734
8479.858830	0.094969	0.446559	10280.145508
8479.859704	0.094951	0.446559	10363.132812
8479.860593	0.095013	0.446559	10447.599609
8480.846790	1.039274	0.562716	446.887665
8480.847664	1.523544	0.562716	1778.464844
8480.848624	1.518142	0.562716	3235.881348
8480.849549	1.477606	0.562716	4602.666992
8480.850444	1.438583	0.562716	5890.198242
8480.851332	1.401405	0.562716	7134.645996
8480.852274	1.363495	0.562716	8419.058594
8480.853223	1.159559	0.562716	9519.480469
8480.854104	0.177217	0.562716	9675.608398
8480.855015	0.094757	0.562716	9761.931641
8480.855966	0.094852	0.562716	9852.135742
8480.856887	0.094937	0.562716	9939.572266
8480.857764	0.094860	0.562716	10022.763672
8480.858707	0.094977	0.562716	10112.327148
8480.859634	0.094948	0.562716	10200.343750
8480.860554	0.094918	0.562716	10287.668945
8480.861416	0.094980	0.562716	10369.541992
8480.862376	0.094904	0.562716	10460.649414
8481.868246	1.057745	0.439300	468.581177
8481.869115	1.524507	0.439300	1793.377563
8481.870176	1.513649	0.439300	3399.358887
8481.871188	1.468868	0.439300	4885.853516
8481.872072	1.430812	0.439300	6150.691406
8481.873029	1.391865	0.439300	7482.706543
8481.874079	1.350410	0.439300	8900.637695
8481.875002	0.761803	0.439300	9603.782227
8481.875865	0.103824	0.439300	9693.382812
8481.876914	0.094856	0.439300	9792.886719
8481.877921	0.094849	0.439300	9888.399414
8481.878809	0.094882	0.439300	9972.654297
8481.879779	0.095032	0.439300	10064.834961
8481.880827	0.094980	0.439300	10164.374023
8481.881745	0.094940	0.439300	10251.529297
8481.882610	0.094915	0.439300	10333.630859
8481.883697	0.095094	0.439300	10436.998047
8481.884694	0.094896	0.439300	10531.609375
8482.874847	1.060312	0.553736	471.839020
8482.875723	1.524862	0.553736	1807.618164
8482.876598	1.520024	0.553736	3137.639648
8482.877558	1.479741	0.553736	4558.191406
8482.878498	1.437938	0.553736	5909.853516
8482.879434	1.399025	0.553736	7219.340820
8482.880312	1.363788	0.553736	8416.746094
8482.881306	1.086921	0.553736	9497.145508
8482.882263	0.141592	0.553736	9632.648437
8482.883182	0.094797	0.553736	9719.767578
8482.884046	0.094933	0.553736	9801.790039
8482.885024	0.094871	0.553736	9894.573242
8482.885940	0.094882	0.553736	9981.484375
8482.886836	0.094874	0.553736	10066.492187
8482.887710	0.094878	0.553736	10149.415039
8482.888689	0.094889	0.553736	10242.311523
8482.889629	0.094900	0.553736	10331.517578
8482.890516	0.094929	0.553736	10415.719727
8483.892229	1.105660	0.459300	539.562317
8483.893105	1.527587	0.459300	1877.728271
8483.893971	1.518215	0.459300	3192.502930
8483.894919	1.477299	0.459300	4592.981934
8483.895874	1.436437	0.459300	5964.779297
8483.896769	1.398999	0.459300	7216.883789
8483.897683	1.363433	0.459300	8463.061523
8483.898619	1.121605	0.459300	9512.883789
8483.899572	0.142632	0.459300	9648.811523
8483.900464	0.094838	0.459300	9733.406250
8483.901381	0.094874	0.459300	9820.406250
8483.902333	0.094882	0.459300	9910.733398
8483.903253	0.094937	0.459300	9998.075195
8483.904116	0.094900	0.459300	10079.973633
8483.905088	0.094849	0.459300	10172.166016
8483.906002	0.094885	0.459300	10258.891602
8483.906918	0.094911	0.459300	10345.830078
8483.907794	0.094933	0.459300	10428.991211
8484.903872	1.036249	0.524511	443.514496
8484.904792	1.524741	0.524511	1846.276367
8484.905750	1.515494	0.524511	3298.120117
8484.906682	1.475109	0.524511	4672.921387
8484.907568	1.436514	0.524511	5945.672363
8484.908540	1.396611	0.524511	7303.178711
8484.909496	1.359002	0.524511	8602.383789
8484.910390	1.083853	0.524511	9571.347656
8484.911308	0.148140	0.524511	9707.339844
8484.912231	0.094819	0.524511	9794.858398
8484.913170	0.094907	0.524511	9883.976562
8484.914047	0.094922	0.524511	9967.222656
8484.914959	0.094885	0.524511	10053.757812
8484.915908	0.094955	0.524511	10143.870117
8484.916827	0.094830	0.524511	10231.019531
8484.917704	0.094849	0.524511	10314.202148
8484.918656	0.094874	0.524511	10404.522461
8484.919592	0.094929	0.524511	10493.375977
8485.916699	1.130885	0.464771	584.667542
8485.917666	1.532340	0.464771	2066.440430
8485.918561	1.513015	0.464771	3420.588867
8485.919579	1.468477	0.464771	4915.498047
8485.920630	1.423843	0.464771	6411.957031
8485.921524	1.386665	0.464771	7651.635742
8485.922434	1.350520	0.464771	8880.609375
8485.923530	0.588918	0.464771	9526.064453
8485.924475	0.096471	0.464771	9617.229492
8485.925344	0.094816	0.464771	9699.624023
8485.926401	0.094948	0.464771	9799.983398
8485.927413	0.094911	0.464771	9896.033203
8485.928303	0.094937	0.464771	9980.526367
8485.929251	0.094856	0.464771	10070.450195
8485.930299	0.094944	0.464771	10169.951172
8485.931227	0.094911	0.464771	10258.028320
8485.932087	0.094918	0.464771	10339.658203
8485.933139	0.094797	0.464771	10439.384766
8486.933055	1.119441	0.508434	623.528564
8486.934082	1.533091	0.508434	2198.012695
8486.934964	1.509280	0.508434	3529.197266
8486.935835	1.470835	0.508434	4810.294434
8486.936820	1.429226	0.508434	6218.082031
8486.937764	1.389276	0.508434	7529.558594
8486.938683	1.353472	0.508434	8773.399414
8486.939567	0.935911	0.508434	9600.744141
8486.940595	0.104725	0.508434	9708.401367
8486.941490	0.094816	0.508434	9793.261719
8486.942368	0.094834	0.508434	9876.526367
8486.943300	0.094929	0.508434	9965.000000
8486.944304	0.094893	0.508434	10060.272461
8486.945230	0.094856	0.508434	10148.109375
8486.946092	0.094922	0.508434	10229.931641
8486.947159	0.094948	0.508434	10331.240234
8486.948042	0.094918	0.508434	10415.052734
8486.948905	0.094929	0.508434	10496.976562
8487.942584	1.028917	0.475088	436.260925
8487.943597	1.527601	0.475088	1983.720947
8487.944525	1.512924	0.475088	3387.713867
8487.945452	1.472966	0.475088	4753.153809
8487.946320	1.434152	0.475088	5997.997070
8487.947373	1.391799	0.475088	7463.561523
8487.948265	1.356130	0.475088	8673.229492
8487.949193	0.991871	0.475088	9593.686523
8487.950056	0.127928	0.475088	9704.088867
8487.951063	0.094885	0.475088	9799.638672
8487.951986	0.094911	0.475088	9887.241211
8487.952855	0.094896	0.475088	9969.706055
8487.953871	0.094940	0.475088	10066.165039
8487.954745	0.094874	0.475088	10149.084961
8487.955654	0.094878	0.475088	10235.329102
8487.956526	0.094889	0.475088	10318.072266
8487.957504	0.094874	0.475088	10410.859375
8487.958438	0.094882	0.475088	10499.478516
8488.961036	1.100365	0.484260	552.383240
8488.961973	1.529568	0.484260	1985.588379
8488.962907	1.513572	0.484260	3399.264404
8488.963771	1.474589	0.484260	4673.308594
8488.964723	1.434067	0.484260	6038.541016
8488.965677	1.394839	0.484260	7369.217285
8488.966567	1.359130	0.484260	8578.842773
8488.967475	1.077480	0.484260	9557.195312
8488.968420	0.129631	0.484260	9679.697266
8488.969360	0.094768	0.484260	9768.779297
8488.970250	0.094808	0.484260	9853.159180
8488.971184	0.094885	0.484260	9941.782227
8488.972143	0.094863	0.484260	10032.755859
8488.973067	0.094731	0.484260	10120.288086
8488.973928	0.094849	0.484260	10201.953125
8488.974869	0.094786	0.484260	10291.147461
8488.975826	0.094830	0.484260	10381.900391
8488.976717	0.094860	0.484260	10466.419922
8489.968129	1.122382	0.494718	542.110291
8489.969059	1.529344	0.494718	1964.400635
8489.969941	1.516381	0.494718	3301.848389
8489.970880	1.475149	0.494718	4687.013184
8489.971839	1.434294	0.494718	6062.501465
8489.972744	1.395879	0.494718	7325.771973
8489.973633	1.360518	0.494718	8535.271484
8489.974591	1.059862	0.494718	9550.619141
8489.975558	0.129950	0.494718	9676.280273
8489.976446	0.094753	0.494718	9760.420898
8489.977338	0.094878	0.494718	9845.051758
8489.978273	0.094852	0.494718	9933.738281
8489.979221	0.094816	0.494718	10023.624023
8489.980116	0.094867	0.494718	10108.530273
8489.981035	0.094819	0.494718	10195.668945
8489.981981	0.094812	0.494718	10285.361328
8489.982898	0.094860	0.494718	10372.347656
8489.983761	0.094863	0.494718	10454.214844
8490.987506	1.091301	0.464070	524.915894
8490.988475	1.529949	0.464070	2007.436157
8490.989399	1.513444	0.464070	3405.857910
8490.990266	1.474655	0.464070	4684.383301
8490.991239	1.433855	0.464070	6079.524414
8490.992188	1.394630	0.464070	7403.028320
8490.993080	1.358591	0.464070	8614.891602
8490.993965	1.065099	0.464070	9557.503906
8490.994891	0.135099	0.464070	9682.605469
8490.995838	0.094805	0.464070	9772.385742
8490.996727	0.094911	0.464070	9856.761719
8490.997635	0.094845	0.464070	9942.880859
8490.998597	0.094845	0.464070	10034.122070
8490.999513	0.094863	0.464070	10121.016602
8491.000387	0.094900	0.464070	10203.958984
8491.001334	0.094860	0.464070	10293.791016
8491.002266	0.094929	0.464070	10382.264648
8491.003192	0.095002	0.464070	10470.237305
8491.996185	1.117518	0.461701	564.346741
8491.997141	1.531663	0.461701	2028.616211
8491.998008	1.514762	0.461701	3341.915039
8491.999056	1.469308	0.461701	4881.749512
8492.000088	1.425436	0.461701	6352.799316
8492.000976	1.388265	0.461701	7585.579102
8492.001925	1.351205	0.461701	8867.872070
8492.003004	0.622009	0.461701	9539.020508
8492.003939	0.097156	0.461701	9629.861328
8492.004799	0.094819	0.461701	9711.406250
8492.005853	0.094944	0.461701	9811.477539
8492.006865	0.094871	0.461701	9907.486328
8492.007747	0.094882	0.461701	9991.171875
8492.008702	0.094874	0.461701	10081.776367
8492.009751	0.094885	0.461701	10181.310547
8492.010671	0.094944	0.461701	10268.659180
8492.011541	0.094867	0.461701	10351.193359
8492.012610	0.094878	0.461701	10452.618164
8493.013471	1.074229	0.461609	493.070892
8493.014350	1.526078	0.461609	1834.493408
8493.015214	1.518779	0.461609	3146.718750
8493.016309	1.473032	0.461609	4759.688965
8493.017240	1.432544	0.461609	6093.387207
8493.018127	1.395641	0.461609	7331.320801
8493.019118	1.357291	0.461609	8676.396484
8493.020136	0.870996	0.461609	9563.070312
8493.021018	0.110698	0.461609	9660.706055
8493.021875	0.094801	0.461609	9741.950195
8493.022951	0.094852	0.461609	9844.011719
8493.023868	0.094805	0.461609	9930.947266
8493.024733	0.094878	0.461609	10013.016602
8493.025679	0.094907	0.461609	10102.798828
8493.026691	0.094845	0.461609	10198.782227
8493.027575	0.094889	0.461609	10282.664062
8493.028451	0.094900	0.461609	10365.795898
8493.029376	0.095024	0.461609	10453.693359
8494.023180	1.070870	0.444219	544.002136
8494.024121	1.530421	0.444219	1984.128418
8494.025045	1.513528	0.444219	3382.628174
8494.025915	1.475164	0.444219	4666.020508
8494.026881	1.433141	0.444219	6050.434570
8494.027845	1.393455	0.444219	7393.724609
8494.028775	1.357046	0.444219	8655.777344
8494.029639	1.021857	0.444219	9538.661133
8494.030604	0.125936	0.444219	9660.189453
8494.031550	0.094750	0.444219	9749.822266
8494.032440	0.094926	0.444219	9834.305664
8494.033348	0.094904	0.444219	9920.478516
8494.034282	0.094889	0.444219	10009.104492
8494.035214	0.094867	0.444219	10097.520508
8494.036102	0.094882	0.444219	10181.775391
8494.037025	0.094904	0.444219	10269.371094
8494.037967	0.094958	0.444219	10358.822266
8494.038892	0.094933	0.444219	10446.634766
8495.038416	1.048561	0.443006	458.221039
8495.039299	1.525100	0.443006	1804.884399
8495.040221	1.518845	0.443006	3205.259766
8495.041184	1.477192	0.443006	4627.795898
8495.042106	1.436528	0.443006	5952.274902
8495.042992	1.399688	0.443006	7192.397949
8495.043928	1.362173	0.443006	8467.391602
8495.044891	1.093202	0.443006	9520.144531
8495.045819	0.146565	0.443006	9656.157227
8495.046674	0.094687	0.443006	9737.115234
8495.047613	0.094849	0.443006	9826.177734
8495.048561	0.094775	0.443006	9916.024414
8495.049445	0.094772	0.443006	9999.802734
8495.050355	0.094720	0.443006	10085.998047
8495.051266	0.094929	0.443006	10172.478516
8495.052199	0.094786	0.443006	10260.914062
8495.053060	0.094907	0.443006	10342.628906
8495.054024	0.094830	0.443006	10434.044922
8496.051175	1.059646	0.440041	494.854675
8496.052062	1.526880	0.440041	1849.197021
8496.052928	1.519138	0.440041	3164.770752
8496.053909	1.477950	0.440041	4614.640137
8496.054856	1.436744	0.440041	5975.237305
8496.055753	1.398955	0.440041	7230.100098
8496.056616	1.363088	0.440041	8406.445312
8496.057583	1.125037	0.440041	9494.355469
8496.058542	0.154482	0.440041	9642.503906
8496.059432	0.094812	0.440041	9726.886719
8496.060348	0.094893	0.440041	9813.808594
8496.061293	0.094867	0.440041	9903.458008
8496.062201	0.094867	0.440041	9989.597656
8496.063081	0.094929	0.440041	10073.135742
8496.064011	0.094966	0.440041	10161.454102
8496.064965	0.094907	0.440041	10251.995117
8496.065843	0.094915	0.440041	10335.330078
8496.066747	0.094933	0.440041	10421.149414
8497.062335	1.036520	0.452976	442.593933
8497.063262	1.523339	0.452976	1854.729004
8497.064200	1.516644	0.452976	3277.341309
8497.065128	1.476427	0.452976	4647.465820
8497.066003	1.438301	0.452976	5905.979004
8497.066973	1.398552	0.452976	7262.574707
8497.067906	1.360803	0.452976	8532.204102
8497.068835	1.106111	0.452976	9559.781250
8497.069700	0.155522	0.452976	9694.308594
8497.070662	0.094885	0.452976	9785.587891
8497.071607	0.094882	0.452976	9875.250977
8497.072497	0.094922	0.452976	9959.731445
8497.073404	0.094926	0.452976	10045.829102
8497.074362	0.094863	0.452976	10136.708008
8497.075278	0.094823	0.452976	10223.565430
8497.076162	0.094907	0.452976	10307.463867
8497.077092	0.094874	0.452976	10395.697266
8497.078049	0.094867	0.452976	10486.485352
8498.079707	1.048630	0.413897	477.126801
8498.080648	1.528740	0.413897	1915.671387
8498.081573	1.514971	0.413897	3317.019287
8498.082466	1.476171	0.413897	4635.239746
8498.083383	1.436470	0.413897	5952.482422
8498.084344	1.396670	0.413897	7294.682129
8498.085270	1.359891	0.413897	8553.941406
8498.086138	1.126099	0.413897	9531.394531
8498.087112	0.147360	0.413897	9674.922852
8498.088056	0.094823	0.413897	9764.435547
8498.088946	0.094896	0.413897	9848.893555
8498.089860	0.094926	0.413897	9935.655273
8498.090770	0.094819	0.413897	10021.940430
8498.091718	0.094867	0.413897	10111.874023
8498.092607	0.094977	0.413897	10196.308594
8498.093524	0.094918	0.413897	10283.348633
8498.094474	0.094937	0.413897	10373.538086
8498.095387	0.094922	0.413897	10460.202148
8499.086264	1.028364	0.442241	436.026459
8499.087178	1.524357	0.442241	1829.288574
8499.088150	1.515688	0.442241	3302.537598
8499.089076	1.475497	0.442241	4668.847656
8499.089949	1.437382	0.442241	5923.681641
8499.090921	1.397977	0.442241	7282.515625
8499.091874	1.360206	0.442241	8578.791992
8499.092769	1.104206	0.442241	9567.056641
8499.093648	0.155790	0.442241	9703.996094
8499.094599	0.094746	0.442241	9794.099609
8499.095550	0.094856	0.442241	9884.307617
8499.096434	0.094849	0.442241	9968.154297
8499.097353	0.094867	0.442241	10055.336914
8499.098296	0.094867	0.442241	10144.796875
8499.099222	0.094878	0.442241	10232.654297
8499.100107	0.094955	0.442241	10316.689453
8499.101122	0.094948	0.442241	10413.061523
8499.102159	0.094933	0.442241	10511.506836
8500.108299	1.104221	0.406348	557.631714
8500.109330	1.532582	0.406348	2137.723633
8500.110229	1.510715	0.406348	3495.856689
8500.111186	1.469209	0.406348	4901.889648
8500.112234	1.424143	0.406348	6394.391602
8500.113162	1.385471	0.406348	7680.108887
8500.114032	1.350850	0.406348	8855.347656
8500.115101	0.647849	0.406348	9547.898437
8500.116092	0.096812	0.406348	9643.838867
8500.116975	0.094940	0.406348	9727.670898
8500.117946	0.094944	0.406348	9819.861328
8500.118991	0.094889	0.406348	9919.020508
8500.119900	0.094940	0.406348	10005.321289
8500.120756	0.094955	0.406348	10086.602539
8500.121821	0.094966	0.406348	10187.741211
8500.122819	0.094922	0.406348	10282.473633
8500.123708	0.094871	0.406348	10366.813477
8500.124686	0.094915	0.406348	10459.639648
8501.109236	1.089368	0.452227	520.717712
8501.110118	1.527345	0.452227	1867.835937
8501.111077	1.515776	0.452227	3321.465332
8501.112140	1.469077	0.452227	4883.094238
8501.113078	1.428648	0.452227	6223.165527
8501.113954	1.391521	0.452227	7442.138184
8501.115023	1.350623	0.452227	8885.953125
8501.116021	0.679515	0.452227	9564.109375
8501.116910	0.100071	0.452227	9653.072266
8501.117901	0.094860	0.452227	9747.078125
8501.118951	0.094948	0.452227	9846.773437
8501.119849	0.094885	0.452227	9931.980469
8501.120708	0.094900	0.452227	10013.499023
8501.121779	0.094933	0.452227	10115.171875
8501.122767	0.094834	0.452227	10208.868164
8501.123640	0.094878	0.452227	10291.696289
8501.124625	0.094900	0.452227	10385.172852
8501.125685	0.094904	0.452227	10485.770508
8502.139344	1.061180	0.368692	463.735809
8502.140228	1.525726	0.368692	1812.477905
8502.141109	1.519940	0.368692	3151.545410
8502.141972	1.480591	0.368692	4429.295410
8502.142991	1.438616	0.368692	5895.245117
8502.143911	1.400343	0.368692	7183.560547
8502.144781	1.364956	0.368692	8371.072266
8502.145824	1.104254	0.368692	9522.809570
8502.146711	0.153534	0.368692	9658.994141
8502.147613	0.094808	0.368692	9744.511719
8502.148487	0.094882	0.368692	9827.438477
8502.149452	0.094915	0.368692	9919.031250
8502.150389	0.094878	0.368692	10007.931641
8502.151273	0.094980	0.368692	10091.894531
8502.152159	0.094904	0.368692	10175.979492
8502.153128	0.094827	0.368692	10267.866211
8502.154045	0.094922	0.368692	10354.909180
8502.154909	0.094889	0.368692	10436.893555
8503.131065	1.025178	0.486460	430.574829
8503.131932	1.521705	0.486460	1749.893311
8503.132939	1.515916	0.486460	3276.420410
8503.133863	1.475746	0.486460	4640.009766
8503.134747	1.437649	0.486460	5910.891602
8503.135707	1.398633	0.486460	7253.579102
8503.136660	1.360488	0.486460	8550.124023
8503.137543	1.128146	0.486460	9546.276367
8503.138437	0.163282	0.486460	9692.250977
8503.139428	0.094662	0.486460	9786.060547
8503.140345	0.094849	0.486460	9873.037109
8503.141227	0.094878	0.486460	9956.719727
8503.142155	0.094849	0.486460	10044.739258
8503.143102	0.094786	0.486460	10134.501953
8503.144024	0.094779	0.486460	10221.888672
8503.144906	0.094852	0.486460	10305.548828
8503.145835	0.094823	0.486460	10393.639648
8503.146796	0.094849	0.486460	10484.789062
8504.169408	1.036274	0.353227	442.489197
8504.170328	1.526667	0.353227	1847.023193
8504.171295	1.515366	0.353227	3312.382324
8504.172219	1.475321	0.353227	4675.579102
8504.173088	1.437019	0.353227	5924.348633
8504.174060	1.397413	0.353227	7282.634277
8504.174997	1.360426	0.353227	8557.353516
8504.175860	1.137971	0.353227	9539.422852
8504.176820	0.152703	0.353227	9686.017578
8504.177748	0.094669	0.353227	9773.870117
8504.178661	0.094812	0.353227	9860.433594
8504.179524	0.094874	0.353227	9942.310547
8504.180495	0.094827	0.353227	10034.387695
8504.181448	0.094801	0.353227	10124.733398
8504.182340	0.094904	0.353227	10209.387695
8504.183250	0.094871	0.353227	10295.719727
8504.184210	0.094849	0.353227	10386.774414
8504.185134	0.094900	0.353227	10474.461914
8505.155114	1.125861	0.508905	584.321655
8505.156032	1.530553	0.508905	1989.369263
8505.156898	1.514626	0.508905	3301.035645
8505.157972	1.468718	0.508905	4878.438965
8505.158968	1.425894	0.508905	6298.628906
8505.159858	1.389419	0.508905	7535.211914
8505.160835	1.351428	0.508905	8855.557617
8505.161899	0.642990	0.508905	9539.698242
8505.162802	0.098353	0.508905	9628.511719
8505.163662	0.094871	0.508905	9710.100586
8505.164749	0.094896	0.508905	9813.252930
8505.165747	0.094753	0.508905	9907.816406
8505.166617	0.094904	0.508905	9990.382812
8505.167593	0.094915	0.508905	10083.019531
8505.168653	0.094860	0.508905	10183.570312
8505.169542	0.094819	0.508905	10267.864258
8505.170413	0.094929	0.508905	10350.547852
8505.171516	0.094918	0.508905	10455.242187
8506.199004	1.059932	0.335736	470.609650
8506.199884	1.525214	0.335736	1812.797607
8506.200751	1.520321	0.335736	3130.916016
8506.201828	1.474860	0.335736	4719.339844
8506.202707	1.434800	0.335736	5980.528809
8506.203631	1.397150	0.335736	7271.495117
8506.204510	1.360821	0.335736	8467.657227
8506.205561	1.009017	0.335736	9528.134766
8506.206452	0.126215	0.335736	9640.591797
8506.207328	0.094731	0.335736	9723.576172
8506.208314	0.094933	0.335736	9817.179687
8506.209263	0.094849	0.335736	9907.191406
8506.210180	0.094951	0.335736	9994.261719
8506.211042	0.094878	0.335736	10076.046875
8506.212066	0.094856	0.335736	10173.179687
8506.212942	0.094867	0.335736	10256.283203
8506.213806	0.094878	0.335736	10338.257812
8506.214754	0.094984	0.335736	10428.302734
8507.179532	1.096827	0.536528	540.735901
8507.180449	1.529070	0.536528	1942.892822
8507.181335	1.515817	0.536528	3285.906250
8507.182259	1.475413	0.536528	4649.187500
8507.183216	1.434283	0.536528	6021.796875
8507.184145	1.395652	0.536528	7318.357422
8507.185033	1.360151	0.536528	8526.171875
8507.186009	1.050282	0.536528	9551.247070
8507.186946	0.127115	0.536528	9670.354492
8507.187853	0.094728	0.536528	9756.272461
8507.188713	0.094882	0.536528	9837.871094
8507.189679	0.094933	0.536528	9929.576172
8507.190626	0.094867	0.536528	10019.415039
8507.191495	0.094889	0.536528	10101.873047
8507.192406	0.094856	0.536528	10188.287109
8507.193357	0.094845	0.536528	10278.484375
8507.194273	0.094823	0.536528	10365.341797
8507.195147	0.094918	0.536528	10448.300781
8508.227103	1.101940	0.312537	579.620300
8508.228144	1.532391	0.312537	2174.839600
8508.229063	1.508562	0.312537	3561.208008
8508.229930	1.468967	0.312537	4834.802734
8508.231013	1.424092	0.312537	6377.094238
8508.232012	1.382812	0.312537	7758.523926
8508.232901	1.348096	0.312537	8956.980469
8508.233916	0.618999	0.312537	9585.264648
8508.234948	0.096310	0.312537	9684.656250
8508.235841	0.094849	0.312537	9769.356445
8508.236697	0.094962	0.312537	9850.644531
8508.237768	0.094951	0.312537	9952.336914
8508.238760	0.094757	0.312537	10046.335937
8508.239648	0.094808	0.312537	10130.525391
8508.240627	0.094882	0.312537	10223.414062
8508.241678	0.094900	0.312537	10323.154297
8508.242564	0.094915	0.312537	10407.249023
8508.243433	0.094951	0.312537	10489.761719
8509.205048	1.149214	0.578273	589.546753
8509.205935	1.529293	0.578273	1946.029785
8509.206799	1.515908	0.578273	3255.774414
8509.207891	1.469326	0.578273	4860.278320
8509.208833	1.428900	0.578273	6206.302246
8509.209712	1.392290	0.578273	7430.125000
8509.210660	1.355164	0.578273	8714.820312
8509.211720	0.803833	0.578273	9566.882812
8509.212606	0.105549	0.578273	9660.399414
8509.213463	0.094797	0.578273	9741.640625
8509.214496	0.094926	0.578273	9839.698242
8509.215453	0.094926	0.578273	9930.541992
8509.216330	0.094889	0.578273	10013.759766
8509.217240	0.094937	0.578273	10100.152344
8509.218305	0.094893	0.578273	10201.212891
8509.219193	0.094845	0.578273	10285.435547
8509.220057	0.094900	0.578273	10367.428711
8509.221092	0.094940	0.578273	10465.691406
