time (s)	coil I (A)	last det (V)	int current (uC)
7189.146665	1.135587	0.688335	583.691772
7189.147588	1.532692	0.688335	1998.366089
7189.148463	1.516414	0.688335	3325.228027
7189.149555	1.469147	0.688335	4929.536133
7189.150580	1.425571	0.688335	6390.746582
7189.151481	0.619973	0.688335	6949.342285
7189.152463	0.098346	0.688335	7045.917969
7189.153507	0.094863	0.688335	7144.955078
7189.154412	0.094852	0.688335	7230.796387
7189.155271	0.094794	0.688335	7312.224121
7189.156352	0.094896	0.688335	7414.807129
7189.157329	0.094823	0.688335	7507.449219
7189.158214	0.094838	0.688335	7591.380371
7189.159204	0.094874	0.688335	7685.305664
7189.160248	0.094867	0.688335	7784.346680
7189.161138	0.094944	0.688335	7868.846680
7190.117822	1.041628	0.803351	443.733734
7190.118806	1.528400	0.803351	1947.678955
7190.119756	1.515974	0.803351	3387.854492
7190.120653	1.476383	0.803351	4712.169922
7190.121582	1.436774	0.803351	6046.932617
7190.122541	0.908588	0.803351	6918.268066
7190.123445	0.108896	0.803351	7016.710449
7190.124327	0.094900	0.803351	7100.412109
7190.125244	0.094933	0.803351	7187.465332
7190.126201	0.094951	0.803351	7278.333496
7190.127122	0.094999	0.803351	7365.827148
7190.127986	0.094969	0.803351	7447.880859
7190.128957	0.094955	0.803351	7540.082031
7190.129879	0.094922	0.803351	7627.600098
7190.130743	0.094944	0.803351	7709.631348
7190.131713	0.094940	0.803351	7801.723145
7191.156169	1.052743	0.729222	460.048615
7191.157049	1.525609	0.729222	1802.584595
7191.157981	1.519856	0.729222	3219.090332
7191.158935	1.479012	0.729222	4630.068359
7191.159871	1.438693	0.729222	5976.684570
7191.160744	1.069113	0.729222	6910.020020
7191.161734	0.124724	0.729222	7033.497070
7191.162624	0.094808	0.729222	7117.876465
7191.163535	0.094889	0.729222	7204.320312
7191.164410	0.094893	0.729222	7287.351562
7191.165384	0.094860	0.729222	7379.744629
7191.166347	0.094852	0.729222	7471.087402
7191.167238	0.094896	0.729222	7555.640137
7191.168153	0.094863	0.729222	7642.439941
7191.169106	0.094801	0.729222	7732.785156
7191.170030	0.094845	0.729222	7820.421875
7192.173509	1.048162	0.581492	453.853973
7192.174380	1.524814	0.581492	1781.967407
7192.175365	1.518475	0.581492	3277.665527
7192.176291	1.478240	0.581492	4646.515625
7192.177171	1.440194	0.581492	5913.886719
7192.178089	1.061763	0.581492	6888.584961
7192.179056	0.123182	0.581492	7007.702148
7192.179972	0.094852	0.581492	7094.586914
7192.180836	0.094882	0.581492	7176.564453
7192.181783	0.094874	0.581492	7266.410156
7192.182709	0.094867	0.581492	7354.256836
7192.183584	0.094896	0.581492	7437.291016
7192.184589	0.094893	0.581492	7532.658203
7192.185543	0.094900	0.581492	7623.192871
7192.186459	0.094900	0.581492	7710.121094
7192.187329	0.094896	0.581492	7792.680664
7193.155038	1.086130	0.797965	499.619965
7193.155963	1.529103	0.797965	1914.040039
7193.156833	1.518907	0.797965	3235.489502
7193.157818	1.476896	0.797965	4690.231934
7193.158766	1.436356	0.797965	6051.897461
7193.159672	0.973726	0.797965	6934.092773
7193.160583	0.119828	0.797965	7043.255859
7193.161533	0.094838	0.797965	7133.351562
7193.162451	0.094896	0.797965	7220.466309
7193.163309	0.094904	0.797965	7301.893555
7193.164275	0.094896	0.797965	7393.563477
7193.165237	0.094878	0.797965	7484.835937
7193.166150	0.094893	0.797965	7571.472656
7193.167025	0.094849	0.797965	7654.465332
7193.167985	0.094871	0.797965	7745.541016
7193.168928	0.094896	0.797965	7835.028320
7194.203079	1.039460	0.647463	451.125824
7194.203945	1.524452	0.647463	1771.301147
7194.204927	1.519102	0.647463	3263.058838
7194.205858	1.478752	0.647463	4639.777344
7194.206743	1.440084	0.647463	5914.251953
7194.207677	1.043727	0.647463	6889.092773
7194.208630	0.122966	0.647463	7006.279785
7194.209532	0.094827	0.647463	7091.813477
7194.210405	0.094878	0.647463	7174.642090
7194.211331	0.094926	0.647463	7262.542969
7194.212274	0.094867	0.647463	7352.002441
7194.213195	0.094867	0.647463	7439.375000
7194.214058	0.094889	0.647463	7521.264160
7194.215026	0.094852	0.647463	7613.081055
7194.215979	0.094860	0.647463	7703.482422
7194.216870	0.094937	0.647463	7788.070801
7195.217914	1.090928	0.681398	518.190674
7195.218856	1.530494	0.681398	1959.916382
7195.219738	1.517926	0.681398	3298.727051
7195.220677	1.477544	0.681398	4686.140625
7195.221637	1.436371	0.681398	6065.056641
7195.222566	0.926942	0.681398	6926.186035
7195.223425	0.114111	0.681398	7024.207520
7195.224357	0.094794	0.681398	7112.555176
7195.225292	0.094852	0.681398	7201.242187
7195.226218	0.094948	0.681398	7289.163574
7195.227082	0.094926	0.681398	7371.179199
7195.228054	0.094933	0.681398	7463.454102
7195.228996	0.094937	0.681398	7552.884277
7195.229884	0.094962	0.681398	7637.210449
7195.230806	0.094955	0.681398	7724.758789
7195.231767	0.094852	0.681398	7815.911621
7196.201433	1.046407	0.754504	463.558502
7196.202312	1.525030	0.754504	1804.060303
7196.203228	1.520325	0.754504	3196.677734
7196.204177	1.478921	0.754504	4600.173828
7196.205119	1.437993	0.754504	5954.763672
7196.206003	1.067003	0.754504	6897.994629
7196.206961	0.116334	0.754504	7009.442871
7196.207913	0.094834	0.754504	7099.724609
7196.208832	0.094937	0.754504	7186.971191
7196.209693	0.094896	0.754504	7268.676758
7196.210650	0.094867	0.754504	7359.464355
7196.211592	0.094845	0.754504	7448.808105
7196.212479	0.094922	0.754504	7533.003906
7196.213410	0.094907	0.754504	7621.362305
7196.214311	0.094889	0.754504	7706.857422
7196.215237	0.094922	0.754504	7794.754883
7197.260782	1.054318	0.707626	490.257690
7197.261712	1.529509	0.707626	1912.701294
7197.262631	1.517779	0.707626	3307.540527
7197.263494	1.478426	0.707626	4583.422852
7197.264462	1.437048	0.707626	5974.485352
7197.265419	0.940463	0.707626	6874.508301
7197.266312	0.112588	0.707626	6975.049316
7197.267233	0.094816	0.707626	7062.374512
7197.268184	0.094896	0.707626	7152.620605
7197.269095	0.094933	0.707626	7239.104492
7197.269975	0.094969	0.707626	7322.677734
7197.270898	0.094882	0.707626	7410.253418
7197.271861	0.094991	0.707626	7501.729980
7197.272735	0.094948	0.707626	7584.713867
7197.273638	0.094922	0.707626	7670.428223
7197.274594	0.094937	0.707626	7761.187500
7198.238672	1.058342	0.763257	465.670563
7198.239533	1.524294	0.763257	1778.088013
7198.240527	1.518197	0.763257	3287.175781
7198.241460	1.477646	0.763257	4665.819824
7198.242329	1.439355	0.763257	5916.619629
7198.243320	0.973370	0.763257	6881.229492
7198.244249	0.113448	0.763257	6986.623047
7198.245143	0.094834	0.763257	7071.404785
7198.246010	0.094907	0.763257	7153.689453
7198.246975	0.094929	0.763257	7245.295898
7198.247923	0.094977	0.763257	7335.333984
7198.248814	0.094933	0.763257	7419.918945
7198.249722	0.094962	0.763257	7506.144531
7198.250682	0.094929	0.763257	7597.276367
7198.251600	0.094918	0.763257	7684.411133
7198.252465	0.094988	0.763257	7766.575684
7199.264209	1.059243	0.779858	463.948456
7199.265097	1.526250	0.779858	1819.258545
7199.266045	1.519204	0.779858	3259.463867
7199.266970	1.478287	0.779858	4626.879883
7199.267901	1.438498	0.779858	5966.122070
7199.268773	1.083201	0.779858	6910.672852
7199.269735	0.120608	0.779858	7026.697754
7199.270685	0.094933	0.779858	7116.883789
7199.271601	0.094915	0.779858	7203.825684
7199.272460	0.094933	0.779858	7285.373047
7199.273404	0.094889	0.779858	7374.948242
7199.274329	0.094904	0.779858	7462.733887
7199.275209	0.094999	0.779858	7546.333008
7199.276198	0.094878	0.779858	7640.167480
7199.277111	0.094878	0.779858	7726.791016
7199.278035	0.094900	0.779858	7814.478516
7200.285630	1.034392	0.645087	438.582245
7200.286619	1.528110	0.645087	1949.883423
7200.287548	1.517098	0.645087	3359.267822
7200.288421	1.477972	0.645087	4649.537598
7200.289345	1.438953	0.645087	5979.129883
7200.290295	0.956375	0.645087	6887.685547
7200.291235	0.109823	0.645087	6990.918945
7200.292126	0.094830	0.645087	7075.412598
7200.293041	0.094904	0.645087	7162.249512
7200.294006	0.094852	0.645087	7253.781738
7200.294925	0.094926	0.645087	7341.018555
7200.295787	0.094852	0.645087	7422.781250
7200.296750	0.094900	0.645087	7514.169922
7200.297701	0.094944	0.645087	7604.461426
7200.298587	0.094944	0.645087	7688.581543
7200.299464	0.094874	0.645087	7771.786133
7201.271797	1.063352	0.827791	513.599060
7201.272789	1.532571	0.827791	2033.909180
7201.273711	1.513784	0.827791	3429.618164
7201.274593	1.475259	0.827791	4730.796387
7201.275595	1.432815	0.827791	6166.477051
7201.276513	0.809714	0.827791	6909.794922
7201.277440	0.103337	0.827791	7005.588867
7201.278302	0.094918	0.827791	7087.408203
7201.279345	0.094929	0.827791	7186.419434
7201.280220	0.094918	0.827791	7269.472656
7201.281125	0.094918	0.827791	7355.373535
7201.282000	0.094926	0.827791	7438.433594
7201.282981	0.094973	0.827791	7531.602051
7201.283905	0.094907	0.827791	7619.296387
7201.284782	0.094911	0.827791	7702.533203
7201.285848	0.094933	0.827791	7803.731445
7202.326477	1.064857	0.624139	468.537140
7202.327392	1.528275	0.624139	1866.908813
7202.328281	1.518768	0.624139	3217.093750
7202.329326	1.474552	0.624139	4758.000488
7202.330232	1.434987	0.624139	6058.098633
7202.331154	0.938987	0.624139	6923.844727
7202.332017	0.115195	0.624139	7023.258301
7202.333010	0.094896	0.624139	7117.490234
7202.333930	0.094926	0.624139	7204.821777
7202.334813	0.094948	0.624139	7288.660645
7202.335757	0.095035	0.624139	7378.374023
7202.336686	0.094944	0.624139	7466.576660
7202.337559	0.094929	0.624139	7549.449707
7202.338431	0.094940	0.624139	7632.237305
7202.339452	0.094980	0.624139	7729.212402
7202.340371	0.094922	0.624139	7816.445801
7203.302393	1.090712	0.808677	527.904480
7203.303265	1.527253	0.808677	1859.669434
7203.304137	1.519468	0.808677	3184.645264
7203.305186	1.474951	0.808677	4731.869141
7203.306129	1.434294	0.808677	6084.408691
7203.307011	0.957224	0.808677	6928.680176
7203.307951	0.117396	0.808677	7039.032715
7203.308976	0.094911	0.808677	7136.316406
7203.309866	0.095017	0.808677	7220.881836
7203.310727	0.094984	0.808677	7302.663086
7203.311769	0.095068	0.808677	7401.724121
7203.312716	0.094955	0.808677	7491.646484
7203.313588	0.094937	0.808677	7574.431152
7203.314492	0.095050	0.808677	7660.356445
7203.315555	0.095065	0.808677	7761.410156
7203.316434	0.094929	0.808677	7844.853027
7204.344918	1.176742	0.692923	671.919678
7204.345897	1.534475	0.692923	2174.170898
7204.346780	1.512466	0.692923	3509.678223
7204.347678	1.471842	0.692923	4831.392578
7204.348773	1.426703	0.692923	6393.632324
7204.349657	0.662743	0.692923	6979.497070
7204.350513	0.099844	0.692923	7064.963379
7204.351535	0.094926	0.692923	7161.977051
7204.352510	0.094977	0.692923	7254.579590
7204.353392	0.095021	0.692923	7338.387695
7204.354249	0.094940	0.692923	7419.751465
7204.355354	0.095087	0.692923	7524.822266
7204.356258	0.094973	0.692923	7610.678223
7204.357134	0.094969	0.692923	7693.871582
7204.358116	0.094988	0.692923	7787.149414
7204.359106	0.094948	0.692923	7881.147461
7205.344317	1.158307	0.791544	641.702026
7205.345368	1.533582	0.791544	2253.496338
7205.346259	1.509507	0.791544	3598.466797
7205.347173	1.468565	0.791544	4940.734863
7205.348259	1.422517	0.791544	6485.588379
7205.349215	0.460609	0.791544	6925.930664
7205.350082	0.096372	0.791544	7009.485352
7205.351122	0.095006	0.791544	7108.291504
7205.352144	0.094893	0.791544	7205.271484
7205.353035	0.094948	0.791544	7289.869629
7205.353979	0.095043	0.791544	7379.589844
7205.355025	0.094958	0.791544	7478.916504
7205.355964	0.094918	0.791544	7568.044922
7205.356826	0.094966	0.791544	7649.905273
7205.357879	0.094896	0.791544	7749.831055
7205.358884	0.094849	0.791544	7845.153809
7206.359992	1.029152	0.788128	434.301971
7206.361057	1.530787	0.788128	2064.590576
7206.362079	1.509243	0.788128	3607.037109
7206.362973	1.469458	0.788128	4920.732422
7206.363917	1.429545	0.788128	6270.222656
7206.364961	0.567096	0.788128	6862.270996
7206.365888	0.096552	0.788128	6951.774414
7206.366752	0.094830	0.788128	7033.708008
7206.367803	0.095013	0.788128	7133.566895
7206.368801	0.094863	0.788128	7228.240234
7206.369678	0.094885	0.788128	7311.454590
7206.370648	0.094940	0.788128	7403.546387
7206.371687	0.094937	0.788128	7502.185547
7206.372604	0.094951	0.788128	7589.255859
7206.373461	0.094878	0.788128	7670.566406
7206.374508	0.094889	0.788128	7769.915039
7207.380474	1.080938	0.718140	511.283447
7207.381368	1.528564	0.718140	1877.820068
7207.382249	1.519739	0.718140	3216.709961
7207.383160	1.480411	0.718140	4565.364746
7207.384124	1.438997	0.718140	5952.557617
7207.385066	1.005154	0.718140	6899.412598
7207.385931	0.124523	0.718140	7007.124512
7207.386861	0.094812	0.718140	7095.299805
7207.387807	0.094904	0.718140	7185.078613
7207.388736	0.094904	0.718140	7273.244141
7207.389593	0.094827	0.718140	7354.510742
7207.390532	0.094871	0.718140	7443.594238
7207.391477	0.094951	0.718140	7533.323242
7207.392368	0.094955	0.718140	7617.928223
7207.393303	0.094896	0.718140	7706.656250
7207.394378	0.095017	0.718140	7808.799805
7208.378307	1.028899	0.774226	441.397644
7208.379175	1.523134	0.774226	1763.477539
7208.380143	1.519647	0.774226	3234.496094
7208.381070	1.478558	0.774226	4605.119629
7208.381986	1.439136	0.774226	5923.368164
7208.382856	1.064301	0.774226	6849.309570
7208.383827	0.126665	0.774226	6972.301270
7208.384777	0.094647	0.774226	7062.216309
7208.385666	0.094849	0.774226	7146.536621
7208.386637	0.094885	0.774226	7238.670410
7208.387695	0.094885	0.774226	7339.059082
7208.388682	0.094786	0.774226	7432.613281
7208.389556	0.094896	0.774226	7515.552734
7208.390552	0.094940	0.774226	7610.113281
7208.391590	0.094794	0.774226	7708.509277
7208.392483	0.094823	0.774226	7793.186035
7209.416125	1.032491	0.706212	439.841370
7209.417120	1.525814	0.706212	1958.026367
7209.418178	1.511056	0.706212	3556.723389
7209.419091	1.469802	0.706212	4898.652832
7209.419967	1.430629	0.706212	6151.883789
7209.421076	0.589633	0.706212	6805.786133
7209.422050	0.096108	0.706212	6899.395508
7209.422911	0.094812	0.706212	6981.028809
7209.424001	0.094973	0.706212	7084.549316
7209.425017	0.094904	0.706212	7180.971191
7209.425900	0.094882	0.706212	7264.751465
7209.426823	0.094926	0.706212	7352.367676
7209.427865	0.094860	0.706212	7451.211426
7209.428800	0.094867	0.706212	7539.912109
7209.429663	0.094929	0.706212	7621.835937
7209.430695	0.094937	0.706212	7719.810547
7210.404832	1.082150	0.841020	498.870972
7210.405720	1.526759	0.841020	1854.632935
7210.406724	1.515542	0.841020	3376.237061
7210.407780	1.469183	0.841020	4927.694824
7210.408724	1.428809	0.841020	6276.490234
7210.409592	0.788624	0.841020	6961.016113
7210.410629	0.099404	0.841020	7064.098145
7210.411638	0.094926	0.841020	7159.877930
7210.412524	0.094933	0.841020	7243.988281
7210.413468	0.094951	0.841020	7333.622070
7210.414517	0.094900	0.841020	7433.171875
7210.415448	0.094845	0.841020	7521.472656
7210.416305	0.094904	0.841020	7602.805176
7210.417343	0.094958	0.841020	7701.372070
7210.418369	0.094980	0.841020	7798.822266
7210.419252	0.094951	0.841020	7882.664062
7211.442120	1.044360	0.701753	457.429840
7211.442984	1.524049	0.701753	1774.208130
7211.444071	1.513938	0.701753	3419.858643
7211.445060	1.470399	0.701753	4874.083496
7211.445958	1.432061	0.701753	6160.074219
7211.446965	0.710753	0.701753	6875.802734
7211.448010	0.097291	0.701753	6977.472168
7211.448912	0.094907	0.701753	7063.078613
7211.449772	0.094929	0.701753	7144.717773
7211.450865	0.094918	0.701753	7248.463379
7211.451824	0.094871	0.701753	7339.444336
7211.452682	0.094904	0.701753	7420.871582
7211.453767	0.094955	0.701753	7523.897461
7211.454810	0.094871	0.701753	7622.847656
7211.455688	0.094885	0.701753	7706.156738
7211.456616	0.094955	0.701753	7794.274902
7212.434378	1.038073	0.820903	449.485443
7212.435243	1.523840	0.820903	1767.607300
7212.436166	1.519248	0.820903	3169.873047
7212.437134	1.477888	0.820903	4600.468750
7212.438062	1.438330	0.820903	5935.239258
7212.438935	1.069724	0.820903	6869.108398
7212.439910	0.122208	0.820903	6988.261230
7212.440855	0.094860	0.820903	7077.903809
7212.441747	0.094969	0.820903	7162.616699
7212.442658	0.094955	0.820903	7249.120605
7212.443580	0.094893	0.820903	7336.611328
7212.444536	0.094867	0.820903	7427.304199
7212.445410	0.094878	0.820903	7510.227539
7212.446403	0.095002	0.820903	7604.564941
7212.447451	0.094995	0.820903	7704.119629
7212.448412	0.094926	0.820903	7795.343262
7213.466114	1.069904	0.674171	531.742065
7213.467167	1.532600	0.674171	2145.570068
7213.468173	1.506709	0.674171	3661.319336
7213.469066	1.467583	0.674171	4971.871094
7213.470046	1.425850	0.674171	6369.203613
7213.471109	0.443774	0.674171	6840.935547
7213.472018	0.095530	0.674171	6927.771973
7213.472881	0.094980	0.674171	7009.740234
7213.473991	0.094999	0.674171	7115.188965
7213.474958	0.094893	0.674171	7206.950195
7213.475823	0.094904	0.674171	7289.041992
7213.476889	0.094995	0.674171	7390.306641
7213.477906	0.094966	0.674171	7486.886719
7213.478787	0.094988	0.674171	7570.570801
7213.479692	0.094955	0.674171	7656.504883
7213.480754	0.095002	0.674171	7757.397461
7214.470115	1.061580	0.766601	488.326599
7214.471006	1.527510	0.766601	1849.337891
7214.471924	1.518962	0.766601	3243.745361
7214.472892	1.477419	0.766601	4673.887695
7214.473825	1.436510	0.766601	6014.151367
7214.474708	1.024241	0.766601	6918.555664
7214.475686	0.110149	0.766601	7026.281250
7214.476630	0.094874	0.766601	7115.842773
7214.477561	0.094860	0.766601	7204.157227
7214.478425	0.094904	0.766601	7286.153809
7214.479393	0.094878	0.766601	7377.995605
7214.480316	0.094867	0.766601	7465.557617
7214.481212	0.094783	0.766601	7550.482910
7214.482127	0.094922	0.766601	7637.336426
7214.483068	0.094980	0.766601	7726.712891
7214.483988	0.094827	0.766601	7813.953613
7215.484372	1.048828	0.742665	466.728516
7215.485239	1.524877	0.742665	1788.796631
7215.486198	1.518497	0.742665	3245.035645
7215.487133	1.477592	0.742665	4626.583984
7215.488020	1.439337	0.742665	5903.275879
7215.488916	1.066230	0.742665	6858.618164
7215.489867	0.121256	0.742665	6973.932617
7215.490821	0.094816	0.742665	7064.386719
7215.491709	0.094889	0.742665	7148.647949
7215.492634	0.094863	0.742665	7236.396484
7215.493591	0.094885	0.742665	7327.201660
7215.494512	0.094904	0.742665	7414.607910
7215.495378	0.094893	0.742665	7496.784668
7215.496449	0.094988	0.742665	7598.516602
7215.497500	0.094915	0.742665	7698.271973
7215.498412	0.094856	0.742665	7784.780762
7216.508861	1.027687	0.680129	436.766907
7216.509864	1.527997	0.680129	1969.347656
7216.510918	1.510719	0.680129	3561.645508
7216.511811	1.470472	0.680129	4874.777344
7216.512724	1.431313	0.680129	6181.566406
7216.513785	0.621874	0.680129	6841.374512
7216.514742	0.096764	0.680129	6933.977539
7216.515602	0.094904	0.680129	7015.594727
7216.516636	0.094933	0.680129	7113.755371
7216.517667	0.094937	0.680129	7211.634766
7216.518553	0.094940	0.680129	7295.751953
7216.519477	0.094944	0.680129	7383.479980
7216.520524	0.094904	0.680129	7482.844238
7216.521465	0.094889	0.680129	7572.134766
7216.522321	0.094863	0.680129	7653.337891
7216.523344	0.094973	0.680129	7750.495605
7217.499062	1.032224	0.781196	433.534149
7217.500118	1.529612	0.781196	2048.804199
7217.501111	1.509913	0.781196	3548.147949
7217.502006	1.470670	0.781196	4864.397461
7217.503003	1.428508	0.781196	6288.620117
7217.504048	0.547192	0.781196	6860.436035
7217.504950	0.096464	0.781196	6947.446289
7217.505815	0.094969	0.781196	7029.594727
7217.506912	0.094977	0.781196	7133.784180
7217.507873	0.094922	0.781196	7225.003906
7217.508741	0.094918	0.781196	7307.393066
7217.509830	0.095002	0.781196	7410.850586
7217.510862	0.094948	0.781196	7508.836426
7217.511756	0.094951	0.781196	7593.722656
7217.512672	0.094973	0.781196	7680.718262
7217.513718	0.095002	0.781196	7780.090820
7218.545083	1.027830	0.672382	431.688416
7218.546037	1.524294	0.672382	1885.865234
7218.547101	1.512048	0.672382	3494.684570
7218.548031	1.470798	0.672382	4862.527344
7218.548900	1.432848	0.672382	6107.671875
7218.549969	0.676080	0.672382	6830.401855
7218.550966	0.096687	0.672382	6926.798828
7218.551860	0.094896	0.672382	7011.636230
7218.552843	0.094980	0.672382	7105.001953
7218.553888	0.094911	0.672382	7204.183594
7218.554795	0.094933	0.672382	7290.287598
7218.555658	0.094948	0.672382	7372.227539
7218.556746	0.095083	0.672382	7475.677734
7218.557730	0.094944	0.672382	7569.102539
7218.558604	0.094926	0.672382	7652.067383
7218.559611	0.095010	0.672382	7747.742187
7219.524538	1.028101	0.820927	434.886566
7219.525526	1.527839	0.820927	1944.391846
7219.526468	1.515040	0.820927	3371.559814
7219.527389	1.475127	0.820927	4730.151855
7219.528256	1.436565	0.820927	5975.653809
7219.529233	0.940712	0.820927	6894.729004
7219.530191	0.111053	0.820927	7001.118164
7219.531060	0.094896	0.820927	7083.583008
7219.531970	0.095010	0.820927	7170.041992
7219.532924	0.094889	0.820927	7260.565918
7219.533842	0.094948	0.820927	7347.727539
7219.534716	0.094926	0.820927	7430.692383
7219.535649	0.094940	0.820927	7519.271484
7219.536608	0.094929	0.820927	7610.308594
7219.537531	0.094973	0.820927	7697.968750
7219.538392	0.095050	0.820927	7779.806641
7220.567049	1.096589	0.651733	549.391235
7220.567947	1.530516	0.651733	1923.794922
7220.568814	1.517183	0.651733	3239.192383
7220.569930	1.470381	0.651733	4880.137207
7220.570910	1.428589	0.651733	6280.154297
7220.571784	0.767703	0.651733	6951.126465
7220.572894	0.097211	0.651733	7059.030273
7220.573915	0.094933	0.651733	7155.956543
7220.574807	0.095017	0.651733	7240.711914
7220.575733	0.094926	0.651733	7328.612793
7220.576791	0.094958	0.651733	7429.079102
7220.577723	0.094948	0.651733	7517.570312
7220.578583	0.094929	0.651733	7599.209473
7220.579623	0.094977	0.651733	7697.985352
7220.580639	0.094893	0.651733	7794.395996
7220.581525	0.094911	0.651733	7878.486816
7221.566932	1.057647	0.784132	468.537415
7221.567804	1.525118	0.784132	1798.440674
7221.568770	1.518256	0.784132	3265.075684
7221.569700	1.477441	0.784132	4639.096191
7221.570593	1.438770	0.784132	5923.917480
7221.571479	1.063704	0.784132	6866.358887
7221.572425	0.126174	0.784132	6985.719727
7221.573376	0.094775	0.784132	7075.851074
7221.574250	0.094816	0.784132	7158.720215
7221.575174	0.094911	0.784132	7246.417969
7221.576105	0.094827	0.784132	7334.701660
7221.576992	0.094896	0.784132	7418.874512
7221.577909	0.094852	0.784132	7505.854004
7221.578826	0.094834	0.784132	7592.816895
7221.579766	0.094830	0.784132	7681.957520
7221.580655	0.094867	0.784132	7766.294434
7222.572517	1.087046	0.737758	505.476349
7222.573409	1.527744	0.737758	1868.223999
7222.574276	1.519948	0.737758	3186.018555
7222.575261	1.478247	0.737758	4642.091797
7222.576210	1.437448	0.737758	6006.229492
7222.577104	1.031440	0.737758	6928.337402
7222.578010	0.128672	0.737758	7044.914062
7222.578932	0.094860	0.737758	7132.374512
7222.579886	0.094915	0.737758	7222.922852
7222.580769	0.094958	0.737758	7306.770996
7222.581676	0.094958	0.737758	7392.898437
7222.582630	0.094911	0.737758	7483.443359
7222.583551	0.094871	0.737758	7570.819336
7222.584412	0.094918	0.737758	7652.543945
7222.585368	0.094852	0.737758	7743.222656
7222.586321	0.094933	0.737758	7833.693848
7223.611888	1.050828	0.593291	498.092285
7223.612810	1.530099	0.593291	1908.843506
7223.613699	1.518402	0.593291	3258.703125
7223.614579	1.479357	0.593291	4560.537109
7223.615554	1.437385	0.593291	5961.987793
7223.616520	0.945864	0.593291	6875.692871
7223.617393	0.115690	0.593291	6976.689941
7223.618314	0.094904	0.593291	7064.096191
7223.619255	0.094860	0.593291	7153.358887
7223.620187	0.094904	0.593291	7241.809082
7223.621063	0.094900	0.593291	7324.941406
7223.621992	0.094871	0.593291	7413.076172
7223.622934	0.094841	0.593291	7502.416504
7223.623860	0.094951	0.593291	7590.341309
7223.624722	0.094977	0.593291	7672.211426
7223.625805	0.094991	0.593291	7775.087402
7224.587195	1.040350	0.814506	440.068176
7224.588189	1.528458	0.814506	1959.355713
7224.589123	1.515692	0.814506	3375.012207
7224.589994	1.477141	0.814506	4661.602051
7224.590898	1.437847	0.814506	5961.415527
7224.591863	0.960015	0.814506	6887.829590
7224.592785	0.112240	0.814506	6991.314941
7224.593658	0.094834	0.814506	7074.104980
7224.594568	0.094882	0.814506	7160.447266
7224.595520	0.094958	0.814506	7250.847656
7224.596439	0.094962	0.814506	7338.117676
7224.597301	0.094962	0.814506	7419.975098
7224.598264	0.094944	0.814506	7511.406250
7224.599220	0.094966	0.814506	7602.193359
7224.600112	0.094966	0.814506	7686.902832
7224.601049	0.094969	0.814506	7775.889160
7225.635800	1.042793	0.610737	455.700562
7225.636677	1.526133	0.610737	1794.119019
7225.637572	1.521233	0.610737	3155.622559
7225.638519	1.479492	0.610737	4556.701660
7225.639473	1.438879	0.610737	5929.392578
7225.640352	1.092312	0.610737	6889.534668
7225.641278	0.135432	0.610737	7014.944824
7225.642218	0.094794	0.610737	7104.050781
7225.643144	0.094922	0.610737	7191.948242
7225.644014	0.094849	0.610737	7274.466797
7225.644961	0.094896	0.610737	7364.333496
7225.645897	0.094849	0.610737	7453.111816
7225.646799	0.094915	0.610737	7538.724609
7225.647659	0.094904	0.610737	7620.341797
7225.648628	0.094889	0.610737	7712.289062
7225.649565	0.094904	0.610737	7801.213867
7226.631643	1.081285	0.725021	482.253265
7226.632572	1.529081	0.725021	1902.769287
7226.633461	1.518776	0.725021	3252.960937
7226.634390	1.478075	0.725021	4626.092773
7226.635347	1.437477	0.725021	6001.757812
7226.636274	0.984386	0.725021	6914.283691
7226.637139	0.121718	0.725021	7019.569336
7226.638123	0.094783	0.725021	7112.835449
7226.639015	0.094838	0.725021	7197.430664
7226.639912	0.094907	0.725021	7282.562500
7226.640883	0.094849	0.725021	7374.660645
7226.641848	0.094904	0.725021	7466.242676
7226.642774	0.094962	0.725021	7554.177734
7226.643637	0.094889	0.725021	7636.066895
7226.644601	0.094962	0.725021	7727.610352
7226.645551	0.094878	0.725021	7817.744141
7227.642816	1.031700	0.727260	438.472717
7227.643683	1.523379	0.727260	1759.242187
7227.644657	1.518563	0.727260	3238.322754
7227.645583	1.478456	0.727260	4607.373047
7227.646461	1.440531	0.727260	5872.159180
7227.647372	1.089987	0.727260	6865.136719
7227.648337	0.129847	0.727260	6990.439453
7227.649260	0.094845	0.727260	7077.981445
7227.650126	0.094852	0.727260	7160.123535
7227.651095	0.094841	0.727260	7252.024902
7227.651987	0.094856	0.727260	7336.636230
7227.652898	0.094878	0.727260	7423.069824
7227.653772	0.094893	0.727260	7506.005859
7227.654733	0.094944	0.727260	7597.247070
7227.655656	0.094893	0.727260	7684.833008
7227.656521	0.094929	0.727260	7766.946777
7228.680116	1.023706	0.620212	429.956543
7228.681034	1.525957	0.620212	1830.785034
7228.681991	1.517783	0.620212	3283.303467
7228.682888	1.478734	0.620212	4609.728027
7228.683804	1.439271	0.620212	5928.100586
7228.684770	0.999507	0.620212	6893.624023
7228.685683	0.114492	0.620212	6998.155273
7228.686568	0.094775	0.620212	7082.031250
7228.687493	0.094863	0.620212	7169.779785
7228.688451	0.094885	0.620212	7260.679687
7228.689371	0.094918	0.620212	7348.004395
7228.690230	0.094878	0.620212	7429.504395
7228.691167	0.094944	0.620212	7518.466797
7228.692123	0.094922	0.620212	7609.211914
7228.693009	0.094922	0.620212	7693.312500
7228.693893	0.094904	0.620212	7777.207031
7229.662170	1.071581	0.815976	481.139771
7229.663094	1.527883	0.815976	1892.903931
7229.663958	1.518721	0.815976	3205.078613
7229.664921	1.477233	0.815976	4627.653320
7229.665879	1.436078	0.815976	6003.416016
7229.666781	1.006729	0.815976	6911.485352
7229.667697	0.123032	0.815976	7024.182617
7229.668655	0.094801	0.815976	7115.001953
7229.669580	0.094841	0.815976	7202.729980
7229.670455	0.094948	0.815976	7285.809082
7229.671409	0.094878	0.815976	7376.322754
7229.672351	0.094841	0.815976	7465.663086
7229.673273	0.094933	0.815976	7553.191406
7229.674135	0.094907	0.815976	7635.001465
7229.675219	0.094984	0.815976	7737.964355
7229.676260	0.094885	0.815976	7836.739746
7230.694936	1.106580	0.631072	573.208252
7230.696000	1.533278	0.631072	2204.615723
7230.696901	1.509763	0.631072	3564.912354
7230.697777	1.469652	0.631072	4852.327637
7230.698881	1.423770	0.631072	6424.169434
7230.699858	0.459532	0.631072	6873.132812
7230.700737	0.096273	0.631072	6957.756836
7230.701723	0.094955	0.631072	7051.382324
7230.702778	0.094918	0.631072	7151.520996
7230.703670	0.094958	0.631072	7236.224121
7230.704537	0.095035	0.631072	7318.619629
7230.705643	0.094995	0.631072	7423.684082
7230.706598	0.094918	0.631072	7514.331055
7230.707463	0.094907	0.631072	7596.425781
7230.708501	0.095032	0.631072	7695.068848
7230.709524	0.095013	0.631072	7792.267578
7231.709650	1.059580	0.660596	472.572723
7231.710530	1.526279	0.660596	1815.698608
7231.711520	1.517164	0.660596	3317.691162
7231.712577	1.470971	0.660596	4872.506836
7231.713494	1.431258	0.660596	6184.970703
7231.714367	0.835258	0.660596	6914.150391
7231.715455	0.099174	0.660596	7022.051270
7231.716418	0.094889	0.660596	7113.429199
7231.717295	0.094922	0.660596	7196.675781
7231.718311	0.095061	0.660596	7293.257812
7231.719348	0.094962	0.660596	7391.733398
7231.720230	0.094955	0.660596	7475.483398
7231.721096	0.094984	0.660596	7557.739746
7231.722188	0.094933	0.660596	7661.406250
7231.723143	0.094904	0.660596	7752.039062
7231.724001	0.094948	0.660596	7833.503906
7232.698843	1.061803	0.749070	475.687744
7232.699714	1.525437	0.749070	1804.343384
7232.700632	1.519237	0.749070	3199.002930
7232.701596	1.477595	0.749070	4623.404785
7232.702528	1.437543	0.749070	5963.194824
7232.703412	1.051190	0.749070	6892.447266
7232.704389	0.118378	0.749070	7008.102051
7232.705311	0.094805	0.749070	7095.512207
7232.706170	0.094885	0.749070	7177.018555
7232.707169	0.094896	0.749070	7271.819824
7232.708092	0.094893	0.749070	7359.405762
7232.709019	0.094940	0.749070	7447.415527
7232.709879	0.094955	0.749070	7529.076660
7232.710817	0.094977	0.749070	7618.165039
7232.711763	0.094937	0.749070	7707.975098
7232.712656	0.094915	0.749070	7792.733887
7233.749440	1.031755	0.568903	435.400757
7233.750376	1.527565	0.568903	1865.201416
7233.751322	1.517106	0.568903	3300.383301
7233.752247	1.477181	0.568903	4666.775879
7233.753117	1.438652	0.568903	5918.403320
7233.754078	0.980288	0.568903	6860.459961
7233.755035	0.113723	0.568903	6969.292969
7233.755920	0.094823	0.568903	7053.211426
7233.756836	0.094874	0.568903	7140.116211
7233.757786	0.094966	0.568903	7230.333496
7233.758717	0.094794	0.568903	7318.586426
7233.759607	0.094951	0.568903	7403.092773
7233.760524	0.094863	0.568903	7490.082520
7233.761480	0.094900	0.568903	7580.806641
7233.762404	0.094933	0.568903	7668.524414
7233.763267	0.094904	0.568903	7750.426270
7234.729945	1.058280	0.767362	468.818024
7234.730899	1.528652	0.767362	1927.152344
7234.731826	1.516567	0.767362	3333.010254
7234.732690	1.477324	0.767362	4609.418457
7234.733647	1.436609	0.767362	5984.252930
7234.734601	0.947131	0.767362	6887.816406
7234.735492	0.113295	0.767362	6988.762207
7234.736409	0.094849	0.767362	7075.738281
7234.737356	0.094885	0.767362	7165.594727
7234.738278	0.094871	0.767362	7253.065430
7234.739171	0.094922	0.767362	7337.830566
7234.740100	0.094980	0.767362	7426.067383
7234.741051	0.094830	0.767362	7516.250977
7234.741923	0.094922	0.767362	7599.022949
7234.742833	0.094918	0.767362	7685.398437
7234.743776	0.094937	0.767362	7774.923828
7235.760127	1.087324	0.618379	524.090210
7235.761060	1.530330	0.618379	1951.887695
7235.761940	1.517747	0.618379	3287.504639
7235.762850	1.477482	0.618379	4632.013184
7235.763805	1.436620	0.618379	6003.985352
7235.764735	0.962267	0.618379	6898.893555
7235.765614	0.116367	0.618379	7001.180176
7235.766565	0.094775	0.618379	7091.311523
7235.767484	0.094926	0.618379	7178.547852
7235.768405	0.094929	0.618379	7265.977539
7235.769269	0.094911	0.618379	7347.980469
7235.770241	0.094915	0.618379	7440.237305
7235.771182	0.094885	0.618379	7529.524414
7235.772072	0.094988	0.618379	7614.063477
7235.772971	0.094907	0.618379	7699.385254
7235.773896	0.094893	0.618379	7787.161133
7236.781021	1.076352	0.632627	482.205902
7236.781912	1.527616	0.632627	1843.311768
7236.782782	1.519413	0.632627	3165.200928
7236.783769	1.477196	0.632627	4623.193359
7236.784732	1.436338	0.632627	6006.386719
7236.785638	0.999459	0.632627	6911.896973
7236.786548	0.120758	0.632627	7021.786621
7236.787502	0.094867	0.632627	7112.289551
7236.788430	0.094911	0.632627	7200.366699
7236.789293	0.094900	0.632627	7282.265137
7236.790258	0.094882	0.632627	7373.825684
7236.791184	0.094889	0.632627	7461.692871
7236.792076	0.094878	0.632627	7546.324219
7236.792951	0.094926	0.632627	7629.384277
7236.793918	0.094915	0.632627	7721.166504
7236.794863	0.094973	0.632627	7810.916016
7237.769198	1.047231	0.750069	497.434937
7237.770136	1.529575	0.750069	1932.176392
7237.771054	1.516128	0.750069	3323.981934
7237.771932	1.477588	0.750069	4621.304199
7237.772863	1.437305	0.750069	5959.434570
7237.773808	0.952192	0.750069	6859.256348
7237.774724	0.113141	0.750069	6962.893555
7237.775598	0.094790	0.750069	7045.740234
7237.776565	0.094907	0.750069	7137.515625
7237.777520	0.094955	0.750069	7228.197266
7237.778411	0.094907	0.750069	7312.759766
7237.779285	0.094937	0.750069	7395.734375
7237.780239	0.094849	0.750069	7486.219727
7237.781181	0.094911	0.750069	7575.625977
7237.782065	0.094929	0.750069	7659.543457
7237.782994	0.094958	0.750069	7747.759766
7238.815186	1.047935	0.548629	460.043274
7238.816059	1.525488	0.548629	1791.794434
7238.817041	1.518702	0.548629	3283.160156
7238.817954	1.476947	0.548629	4631.612793
7238.818875	1.437565	0.548629	5955.609863
7238.819765	1.022439	0.548629	6865.580566
7238.820735	0.117275	0.548629	6979.337891
7238.821661	0.094790	0.548629	7067.113281
7238.822522	0.094948	0.548629	7148.863281
7238.823495	0.094907	0.548629	7241.208008
7238.824447	0.094911	0.548629	7331.562988
7238.825332	0.094915	0.548629	7415.562500
7238.826197	0.094830	0.548629	7497.590820
7238.827149	0.094878	0.548629	7587.914551
7238.828094	0.094940	0.548629	7677.632812
7238.828966	0.094940	0.548629	7760.420898
7239.801808	1.051762	0.735724	462.775055
7239.802670	1.524042	0.735724	1776.499023
7239.803633	1.518043	0.735724	3238.374512
7239.804592	1.476643	0.735724	4654.475098
7239.805491	1.437909	0.735724	5947.155273
7239.806409	1.024845	0.735724	6887.962891
7239.807369	0.117341	0.735724	7000.610352
7239.808279	0.094856	0.735724	7086.929199
7239.809151	0.094878	0.735724	7169.662598
7239.810182	0.094893	0.735724	7267.497070
7239.811135	0.094951	0.735724	7357.985352
7239.812063	0.094962	0.735724	7446.110352
7239.812921	0.094911	0.735724	7527.543945
7239.813892	0.094893	0.735724	7619.684570
7239.814812	0.095002	0.735724	7707.086914
7239.815702	0.094922	0.735724	7791.567383
7240.827881	1.067234	0.564339	489.860321
7240.828743	1.526528	0.564339	1805.727661
7240.829664	1.518640	0.564339	3204.395020
7240.830633	1.477181	0.564339	4635.783691
7240.831559	1.437506	0.564339	5966.914062
7240.832447	1.034894	0.564339	6885.899902
7240.833430	0.115276	0.564339	6999.216309
7240.834370	0.094797	0.564339	7088.325684
7240.835252	0.094878	0.564339	7172.007812
7240.836139	0.094849	0.564339	7256.138672
7240.837071	0.094878	0.564339	7344.564941
7240.838020	0.094874	0.564339	7434.600586
7240.838897	0.094893	0.564339	7517.821289
7240.839805	0.094885	0.564339	7603.977051
7240.840757	0.094885	0.564339	7694.307617
7240.841677	0.094911	0.564339	7781.625488
7241.843667	1.069292	0.609791	472.627045
7241.844553	1.526565	0.609791	1825.163574
7241.845419	1.520317	0.609791	3141.758301
7241.846402	1.478544	0.609791	4595.166992
7241.847353	1.437733	0.609791	5962.451172
7241.848255	1.047817	0.609791	6907.582520
7241.849170	0.129397	0.609791	7025.980957
7241.850123	0.094863	0.609791	7116.385742
7241.851046	0.094849	0.609791	7203.931152
7241.851909	0.094907	0.609791	7285.835937
7241.852837	0.094863	0.609791	7373.869141
7241.853758	0.094907	0.609791	7461.278809
7241.854686	0.094922	0.609791	7549.366211
7241.855564	0.094863	0.609791	7632.656250
7241.856528	0.094871	0.609791	7724.111328
7241.857475	0.094915	0.609791	7813.995605
7242.838454	1.032817	0.669180	433.783295
7242.839420	1.527261	0.669180	1909.117187
7242.840351	1.516410	0.669180	3320.894775
7242.841241	1.477526	0.669180	4635.892578
7242.842159	1.438293	0.669180	5956.246094
7242.843131	0.973096	0.669180	6902.095215
7242.844042	0.111863	0.669180	7004.002441
7242.844930	0.094772	0.669180	7088.159668
7242.845867	0.094856	0.669180	7177.039551
7242.846821	0.094841	0.669180	7267.518066
7242.847740	0.094863	0.669180	7354.697266
7242.848602	0.094867	0.669180	7436.472656
7242.849539	0.094863	0.669180	7525.359375
7242.850491	0.094830	0.669180	7615.637695
7242.851378	0.094900	0.669180	7699.813965
7242.852254	0.094856	0.669180	7782.907715
7243.883485	1.071335	0.535118	491.742950
7243.884376	1.528162	0.535118	1853.334961
7243.885240	1.520153	0.535118	3166.746826
7243.886223	1.478178	0.535118	4619.795410
7243.887180	1.437261	0.535118	5995.253906
7243.888074	1.031481	0.535118	6917.397461
7243.888986	0.127804	0.535118	7033.954590
7243.889934	0.094739	0.535118	7123.767090
7243.890845	0.094871	0.535118	7210.194336
7243.891713	0.094885	0.535118	7292.554687
7243.892626	0.094911	0.535118	7379.208496
7243.893586	0.094874	0.535118	7470.287598
7243.894497	0.094882	0.535118	7556.724609
7243.895377	0.094856	0.535118	7640.197754
7243.896345	0.094860	0.535118	7732.021973
7243.897280	0.094790	0.535118	7820.650879
7244.859866	1.070376	0.717202	490.232239
7244.860758	1.526715	0.717202	1852.062256
7244.861628	1.519735	0.717202	3174.231934
7244.862610	1.478221	0.717202	4625.845215
7244.863560	1.437305	0.717202	5991.284668
7244.864447	1.050286	0.717202	6922.888184
7244.865359	0.131605	0.717202	7042.912109
7244.866298	0.094783	0.717202	7131.913086
7244.867225	0.094937	0.717202	7219.919434
7244.868121	0.094933	0.717202	7304.979492
7244.869024	0.094878	0.717202	7390.654297
7244.869985	0.094878	0.717202	7481.832031
7244.870913	0.094874	0.717202	7569.875488
7244.871775	0.094845	0.717202	7651.631836
7244.872747	0.094929	0.717202	7743.902832
7244.873670	0.094801	0.717202	7831.404297
7245.910484	1.039713	0.523689	448.116302
7245.911363	1.525320	0.523689	1788.872437
7245.912293	1.518944	0.523689	3201.490234
7245.913260	1.476929	0.523689	4629.680176
7245.914191	1.437356	0.523689	5967.858398
7245.915061	1.036941	0.523689	6869.997070
7245.916036	0.120428	0.523689	6987.415039
7245.916992	0.094808	0.523689	7078.051758
7245.917887	0.094867	0.523689	7162.957520
7245.918813	0.094874	0.523689	7250.811035
7245.919726	0.094900	0.523689	7337.454590
7245.920655	0.094893	0.523689	7425.609863
7245.921541	0.094915	0.523689	7509.704102
7245.922449	0.094852	0.523689	7595.830078
7245.923403	0.094882	0.523689	7686.347168
7245.924324	0.094904	0.523689	7773.753418
7246.889927	1.036780	0.732219	447.888855
7246.890797	1.524265	0.732219	1773.999512
7246.891705	1.521031	0.732219	3155.096191
7246.892642	1.479613	0.732219	4541.493652
7246.893599	1.438839	0.732219	5918.462891
7246.894483	1.097746	0.732219	6888.870605
7246.895421	0.134725	0.732219	7015.243164
7246.896355	0.094838	0.732219	7103.821289
7246.897276	0.094863	0.732219	7191.190430
7246.898150	0.094867	0.732219	7274.104004
7246.899120	0.094801	0.732219	7366.061035
7246.900049	0.094856	0.732219	7454.182129
7246.900924	0.094933	0.732219	7537.248535
7246.901868	0.094926	0.732219	7626.858398
7246.902808	0.094951	0.732219	7716.112305
7246.903744	0.094878	0.732219	7804.917969
7247.932397	1.065223	0.525748	493.198456
7247.933289	1.528488	0.525748	1856.609375
7247.934158	1.520083	0.525748	3177.561523
7247.935143	1.478441	0.525748	4633.826172
7247.936095	1.437220	0.525748	6002.060059
7247.936998	1.003777	0.525748	6908.470703
7247.937879	0.123655	0.525748	7017.410645
7247.938826	0.094797	0.525748	7107.183594
7247.939769	0.094874	0.525748	7196.649902
7247.940640	0.094904	0.525748	7279.311035
7247.941557	0.094984	0.525748	7366.411621
7247.942510	0.094907	0.525748	7456.858398
7247.943434	0.094915	0.525748	7544.559570
7247.944314	0.094911	0.525748	7628.081055
7247.945256	0.094900	0.525748	7717.476562
7247.946192	0.094867	0.525748	7806.271973
7248.921112	1.115186	0.711880	579.896545
7248.922022	1.530875	0.711880	1972.992920
7248.922946	1.515128	0.711880	3372.971191
7248.923812	1.476511	0.711880	4651.629883
7248.924809	1.434485	0.711880	6081.811523
7248.925734	0.911184	0.711880	6924.656738
7248.926607	0.111541	0.711880	7022.031738
7248.927480	0.094735	0.711880	7104.735352
7248.928450	0.094827	0.711880	7196.717285
7248.929372	0.094893	0.711880	7284.208008
7248.930264	0.094929	0.711880	7368.884766
7248.931171	0.094794	0.711880	7454.862793
7248.932133	0.094863	0.711880	7546.121094
7248.933055	0.094830	0.711880	7633.554687
7248.933935	0.094852	0.711880	7717.024902
7248.934884	0.094838	0.711880	7807.025879
7249.955267	1.034802	0.521820	441.860535
7249.956140	1.524796	0.521820	1773.007568
7249.957004	1.522277	0.521820	3088.254639
7249.957988	1.479998	0.521820	4544.572266
7249.958916	1.439795	0.521820	5880.702148
7249.959845	1.084951	0.521820	6888.621582
7249.960706	0.138867	0.521820	7008.186035
7249.961675	0.094739	0.521820	7099.987793
7249.962621	0.094904	0.521820	7189.766602
7249.963495	0.094911	0.521820	7272.718750
7249.964401	0.094948	0.521820	7358.741211
7249.965352	0.094900	0.521820	7448.991211
7249.966268	0.094937	0.521820	7535.953125
7249.967146	0.094900	0.521820	7619.275391
7249.968094	0.094893	0.521820	7709.233398
7249.969046	0.094940	0.521820	7799.616211
7250.952125	1.026588	0.655145	436.299927
7250.952995	1.523621	0.655145	1761.849854
7250.954016	1.517329	0.655145	3311.042969
7250.954930	1.476160	0.655145	4660.252930
7250.955854	1.436898	0.655145	5987.946777
7250.956726	0.997039	0.655145	6857.364258
7250.957761	0.107659	0.655145	6968.791016
7250.958638	0.094845	0.655145	7051.970215
7250.959505	0.094977	0.655145	7134.314941
7250.960500	0.094991	0.655145	7228.831543
7250.961419	0.094948	0.655145	7316.088379
7250.962319	0.094896	0.655145	7401.495117
7250.963196	0.095028	0.655145	7484.834961
7250.964211	0.094929	0.655145	7581.187988
7250.965111	0.094933	0.655145	7666.627441
7250.965987	0.094951	0.655145	7749.804687
7251.978689	1.030880	0.520849	440.185791
7251.979556	1.524045	0.520849	1761.533081
7251.980592	1.517369	0.520849	3333.527832
7251.981486	1.476647	0.520849	4653.649902
7251.982409	1.437477	0.520849	5980.440918
7251.983279	0.995753	0.520849	6846.746094
7251.984309	0.107747	0.520849	6957.725098
7251.985202	0.094841	0.520849	7042.418457
7251.986080	0.094922	0.520849	7125.759766
7251.987061	0.094944	0.520849	7218.899902
7251.987998	0.094958	0.520849	7307.875977
7251.988913	0.094900	0.520849	7394.709473
7251.989775	0.094955	0.520849	7476.560547
7251.990807	0.094926	0.520849	7574.523926
7251.991688	0.094951	0.520849	7658.175781
7251.992557	0.095021	0.520849	7740.749023
7252.979641	1.039266	0.636639	440.648926
7252.980713	1.532578	0.636639	2083.572754
7252.981612	1.513546	0.636639	3444.250732
7252.982493	1.474666	0.636639	4743.431152
7252.983445	1.434514	0.636639	6109.088867
7252.984431	0.824963	0.636639	6922.502930
7252.985350	0.103433	0.636639	7017.557617
7252.986208	0.094988	0.636639	7099.057129
7252.987240	0.094962	0.636639	7197.058105
7252.988121	0.094991	0.636639	7280.745605
7252.988994	0.094951	0.636639	7363.638184
7252.989875	0.094973	0.636639	7447.309570
7252.990922	0.094900	0.636639	7546.669922
7252.991817	0.094874	0.636639	7631.582520
7252.992693	0.094878	0.636639	7714.695801
7252.993697	0.094962	0.636639	7810.037598
7254.006788	1.095253	0.519617	544.340576
7254.007728	1.531780	0.519617	1984.213501
7254.008605	1.517106	0.519617	3314.715332
7254.009571	1.475508	0.519617	4740.055664
7254.010611	1.430497	0.519617	6227.772461
7254.011499	0.806345	0.519617	6943.807129
7254.012372	0.104952	0.519617	7035.430664
7254.013331	0.094808	0.519617	7126.352051
7254.014319	0.094871	0.519617	7220.083984
7254.015214	0.094944	0.519617	7305.058594
7254.016096	0.094966	0.519617	7388.818359
7254.017120	0.094999	0.519617	7486.097168
7254.018014	0.094882	0.519617	7570.921387
7254.018886	0.094958	0.519617	7653.725098
7254.019752	0.094977	0.519617	7735.975098
7254.020801	0.094915	0.519617	7835.540527
7255.004600	1.024816	0.649268	430.422577
7255.005484	1.522994	0.649268	1776.749634
7255.006569	1.513660	0.649268	3419.070312
7255.007544	1.471029	0.649268	4853.323730
7255.008424	1.433089	0.649268	6114.442383
7255.009352	0.850968	0.649268	6904.140625
7255.010407	0.100074	0.649268	7009.719238
7255.011291	0.094871	0.649268	7093.584961
7255.012150	0.094977	0.649268	7175.169922
7255.013181	0.094999	0.649268	7273.113770
7255.014140	0.094948	0.649268	7364.168457
7255.015012	0.094973	0.649268	7446.984863
7255.015878	0.094937	0.649268	7529.199707
7255.016995	0.094948	0.649268	7635.255859
7255.017897	0.094991	0.649268	7720.937988
7255.018761	0.094951	0.649268	7802.975586
7256.035897	1.154941	0.499016	635.217773
7256.036955	1.534178	0.499016	2258.378662
7256.037851	1.508932	0.499016	3610.381592
7256.038765	1.468092	0.499016	4952.217773
7256.039848	1.421927	0.499016	6492.165039
7256.040816	0.433334	0.499016	6911.631836
7256.041681	0.096123	0.499016	6994.778320
7256.042718	0.095013	0.499016	7093.307129
7256.043733	0.094984	0.499016	7189.715820
7256.044621	0.094907	0.499016	7273.993652
7256.045482	0.094940	0.499016	7355.737305
7256.046534	0.094980	0.499016	7455.656738
7256.047475	0.094929	0.499016	7544.985352
7256.048348	0.094915	0.499016	7627.845703
7256.049270	0.095013	0.499016	7715.448242
7257.024957	1.037406	0.702426	441.934998
7257.026022	1.530176	0.702426	2071.572266
7257.027049	1.508683	0.702426	3620.989502
7257.027926	1.469311	0.702426	4909.575684
7257.028891	1.428541	0.702426	6288.118164
7257.029946	0.533917	0.702426	6851.400879
7257.030861	0.096332	0.702426	6939.544434
7257.031730	0.094958	0.702426	7022.063477
7257.032809	0.095039	0.702426	7124.610840
7257.033799	0.094977	0.702426	7218.637695
7257.034691	0.095068	0.702426	7303.438477
7257.035656	0.095024	0.702426	7395.137207
7257.036713	0.095046	0.702426	7495.601074
7257.037618	0.095021	0.702426	7581.594727
7257.038483	0.095013	0.702426	7663.781250
7257.039585	0.095065	0.702426	7768.542480
7258.066915	1.075880	0.459071	497.056580
7258.067796	1.527858	0.459071	1843.099121
7258.068768	1.517589	0.459071	3318.195801
7258.069823	1.471055	0.459071	4870.158203
7258.070756	1.430676	0.459071	6204.979492
7258.071631	0.835049	0.459071	6935.647461
7258.072686	0.099818	0.459071	7040.955566
7258.073675	0.094933	0.459071	7134.844238
7258.074560	0.094951	0.459071	7218.875977
7258.075559	0.095076	0.459071	7313.856445
7258.076601	0.094977	0.459071	7412.822266
7258.077507	0.094995	0.459071	7498.887695
7258.078367	0.094999	0.459071	7580.586426
7258.079462	0.094988	0.459071	7684.598145
7258.080456	0.094889	0.459071	7778.917969
7258.081332	0.094926	0.459071	7862.072754
7259.047922	1.094905	0.722507	524.459412
7259.048848	1.529806	0.722507	1941.059570
7259.049772	1.515857	0.722507	3341.711426
7259.050659	1.476632	0.722507	4651.483887
7259.051626	1.435598	0.722507	6039.707031
7259.052588	0.906101	0.722507	6911.376465
7259.053480	0.108468	0.722507	7008.129883
7259.054395	0.094918	0.722507	7094.979980
7259.055331	0.094926	0.722507	7183.830078
7259.056266	0.094969	0.722507	7272.626465
7259.057139	0.094940	0.722507	7355.509277
7259.058060	0.094944	0.722507	7442.952637
7259.058994	0.094911	0.722507	7531.599609
7259.059917	0.095035	0.722507	7619.317383
7259.060794	0.095017	0.722507	7702.647461
7259.061736	0.094882	0.722507	7792.025879
7260.096464	1.045964	0.435260	456.040466
7260.097332	1.525199	0.435260	1779.913086
7260.098312	1.519416	0.435260	3268.941162
7260.099215	1.478415	0.435260	4603.950195
7260.100110	1.439971	0.435260	5892.724121
7260.100985	1.079766	0.435260	6837.519043
7260.101955	0.126409	0.435260	6960.135254
7260.102897	0.094812	0.435260	7049.448242
7260.103790	0.094896	0.435260	7134.190430
7260.104696	0.094958	0.435260	7220.222656
7260.105651	0.094922	0.435260	7310.873047
7260.106575	0.094874	0.435260	7398.537109
7260.107436	0.094937	0.435260	7480.277344
7260.108370	0.094922	0.435260	7568.934570
7260.109288	0.094937	0.435260	7656.086426
7260.110209	0.094969	0.435260	7743.553223
7261.073860	1.040841	0.704460	448.602478
7261.074726	1.523437	0.704460	1767.899414
7261.075825	1.512964	0.704460	3430.646729
7261.076824	1.469275	0.704460	4898.452148
7261.077713	1.431149	0.704460	6170.743164
7261.078713	0.705084	0.704460	6875.827148
7261.079764	0.097061	0.704460	6977.837891
7261.080656	0.094955	0.704460	7062.537598
7261.081548	0.094948	0.704460	7147.230957
7261.082642	0.094937	0.704460	7251.091309
7261.083602	0.094849	0.704460	7342.145996
7261.084465	0.094951	0.704460	7424.088867
7261.085511	0.094926	0.704460	7523.380859
7261.086542	0.094933	0.704460	7621.256836
7261.087420	0.094907	0.704460	7704.585449
7261.088335	0.094977	0.704460	7791.489258
7262.119901	1.074543	0.426357	493.215454
7262.120777	1.527396	0.426357	1831.214478
7262.121751	1.517849	0.426357	3309.599609
7262.122803	1.471586	0.426357	4857.707520
7262.123727	1.431617	0.426357	6180.521973
7262.124600	0.853403	0.426357	6925.542969
7262.125686	0.099591	0.426357	7033.698730
7262.126670	0.094915	0.426357	7127.094727
7262.127560	0.094969	0.426357	7211.617676
7262.128547	0.095002	0.426357	7305.385254
7262.129587	0.095024	0.426357	7404.210449
7262.130478	0.094958	0.426357	7488.818359
7262.131337	0.094948	0.426357	7570.378418
7262.132441	0.095024	0.426357	7675.285156
7262.133404	0.094929	0.426357	7766.702148
7262.134258	0.095028	0.426357	7847.855957
7263.106997	1.028470	0.619446	430.929108
7263.107948	1.526689	0.619446	1882.810669
7263.108879	1.517183	0.619446	3295.307617
7263.109774	1.478181	0.619446	4618.279785
7263.110686	1.439484	0.619446	5931.088867
7263.111627	1.005795	0.619446	6877.541504
7263.112576	0.114305	0.619446	6986.017578
7263.113464	0.094874	0.619446	7070.266113
7263.114385	0.094973	0.619446	7157.736328
7263.115324	0.094911	0.619446	7246.857422
7263.116249	0.094933	0.619446	7334.670410
7263.117110	0.094966	0.619446	7416.436035
7263.118039	0.094940	0.619446	7504.635254
7263.118967	0.094922	0.619446	7592.722656
7263.119895	0.094922	0.619446	7680.810059
7263.120757	0.094933	0.619446	7762.642090
7264.134143	1.059965	0.485106	521.502563
7264.135060	1.530370	0.485106	1924.851685
7264.135988	1.516132	0.485106	3331.821777
7264.136868	1.477247	0.485106	4631.799316
7264.137793	1.437363	0.485106	5961.360352
7264.138747	0.942184	0.485106	6860.203613
7264.139674	0.110043	0.485106	6962.213379
7264.140534	0.094841	0.485106	7043.776855
7264.141496	0.094926	0.485106	7135.095215
7264.142446	0.094867	0.485106	7225.218750
7264.143331	0.094944	0.485106	7309.244141
7264.144262	0.094933	0.485106	7397.626465
7264.145184	0.095017	0.485106	7485.232422
7264.146105	0.095006	0.485106	7572.732910
7264.146995	0.095010	0.485106	7657.291504
7264.147983	0.095061	0.485106	7751.211914
7265.147329	1.036333	0.525268	443.550507
7265.148358	1.529066	0.525268	2016.959595
7265.149392	1.510210	0.525268	3578.516602
7265.150277	1.470557	0.525268	4879.958984
7265.151177	1.430896	0.525268	6167.765137
7265.152288	0.587787	0.525268	6820.796387
7265.153229	0.096471	0.525268	6911.575684
7265.154088	0.094962	0.525268	6993.147949
7265.155131	0.095006	0.525268	7092.239258
7265.156156	0.094973	0.525268	7189.586914
7265.157029	0.094966	0.525268	7272.492187
7265.157962	0.095021	0.525268	7361.146484
7265.159020	0.095006	0.525268	7461.663086
7265.159955	0.095039	0.525268	7550.524414
7265.160822	0.094995	0.525268	7632.885254
7265.161866	0.095035	0.525268	7732.102051
7266.146251	1.050117	0.569544	452.600525
7266.147171	1.524818	0.569544	1855.433350
7266.148103	1.518358	0.569544	3270.542969
7266.149023	1.478295	0.569544	4630.574219
7266.149897	1.439861	0.569544	5889.012695
7266.150829	1.033433	0.569544	6852.171875
7266.151770	0.121868	0.569544	6966.849121
7266.152693	0.094958	0.569544	7054.495605
7266.153567	0.094911	0.569544	7137.447754
7266.154528	0.095013	0.569544	7228.755859
7266.155477	0.094995	0.569544	7318.906250
7266.156366	0.095028	0.569544	7403.386230
7266.157247	0.094937	0.569544	7487.025391
7266.158189	0.094915	0.569544	7576.435059
7266.159139	0.094958	0.569544	7666.645508
7266.160009	0.094988	0.569544	7749.284668
7267.187683	1.083867	0.473452	500.746643
7267.188582	1.529004	0.473452	1875.321289
7267.189456	1.520332	0.473452	3204.091309
7267.190389	1.479536	0.473452	4584.498535
7267.191352	1.438301	0.473452	5969.582031
7267.192278	1.019110	0.473452	6913.277832
7267.193138	0.126680	0.473452	7022.222168
7267.194083	0.094937	0.473452	7111.937012
7267.195022	0.094948	0.473452	7201.092773
7267.195912	0.095068	0.473452	7285.703613
7267.196812	0.094933	0.473452	7371.143066
7267.197744	0.094969	0.473452	7459.654785
7267.198687	0.094929	0.473452	7549.172852
7267.199573	0.094980	0.473452	7633.325684
7267.200493	0.094969	0.473452	7720.697754
7267.201443	0.094988	0.473452	7810.936035
7268.169698	1.096860	0.601134	494.684052
7268.170664	1.530128	0.601134	1972.787842
7268.171589	1.515209	0.601134	3374.355957
7268.172473	1.475746	0.601134	4678.915527
7268.173452	1.434485	0.601134	6083.276367
7268.174411	0.866517	0.601134	6914.266602
7268.175302	0.105959	0.601134	7008.676270
7268.176213	0.094882	0.601134	7095.113281
7268.177139	0.095021	0.601134	7183.102539
7268.178079	0.094958	0.601134	7272.363281
7268.178954	0.094937	0.601134	7355.432617
7268.179853	0.094980	0.601134	7440.819824
7268.180802	0.094962	0.601134	7530.938965
7268.181718	0.094951	0.601134	7617.914062
7268.182594	0.094966	0.601134	7701.104004
7268.183549	0.094991	0.601134	7791.820801
7269.208516	1.037047	0.479785	449.041412
7269.209380	1.524448	0.479785	1766.164673
7269.210357	1.519259	0.479785	3250.480713
7269.211284	1.478672	0.479785	4621.209473
7269.212162	1.440348	0.479785	5885.834961
7269.213054	1.087280	0.479785	6855.688965
7269.214002	0.128855	0.479785	6977.843262
7269.214958	0.094878	0.479785	7068.546387
7269.215851	0.094984	0.479785	7153.367187
7269.216767	0.095028	0.479785	7240.413086
7269.217724	0.095039	0.479785	7331.365234
7269.218618	0.095021	0.479785	7416.313965
7269.219506	0.095032	0.479785	7500.702148
7269.220446	0.095002	0.479785	7590.004395
7269.221392	0.094980	0.479785	7679.855957
7269.222273	0.095006	0.479785	7763.556152
7270.208448	1.034795	0.531186	442.892242
7270.209368	1.524265	0.531186	1845.216187
7270.210327	1.517695	0.531186	3300.686035
7270.211252	1.477090	0.531186	4666.994141
7270.212119	1.439198	0.531186	5914.778809
7270.213076	0.998394	0.531186	6870.241211
7270.214022	0.117045	0.531186	6980.965332
7270.214948	0.094874	0.531186	7068.818848
7270.215807	0.094984	0.531186	7150.410156
7270.216760	0.094900	0.531186	7240.849609
7270.217709	0.094926	0.531186	7330.934082
7270.218597	0.094940	0.531186	7415.241211
7270.219509	0.094885	0.531186	7501.776367
7270.220436	0.094896	0.531186	7589.745117
7270.221371	0.094904	0.531186	7678.479980
7270.222257	0.094918	0.531186	7762.577637
7271.216126	1.118016	0.558607	547.828003
7271.217059	1.530542	0.558607	1975.823608
7271.217981	1.515842	0.558607	3373.430176
7271.218851	1.476764	0.558607	4658.214844
7271.219828	1.435803	0.558607	6060.994629
7271.220771	0.897411	0.558607	6907.252930
7271.221663	0.109153	0.558607	7004.617187
7271.222572	0.094830	0.558607	7090.817871
7271.223504	0.094966	0.558607	7179.326172
7271.224435	0.094962	0.558607	7267.735840
7271.225323	0.094915	0.558607	7352.020020
7271.226243	0.094980	0.558607	7439.401855
7271.227198	0.094988	0.558607	7530.115234
7271.228114	0.095024	0.558607	7617.157715
7271.228977	0.094977	0.558607	7699.122559
7271.229941	0.094962	0.558607	7790.666016
7272.249840	1.078370	0.422316	515.460999
7272.250769	1.530465	0.422316	1937.263184
7272.251689	1.516593	0.422316	3332.528809
7272.252575	1.477174	0.422316	4641.305176
7272.253550	1.435979	0.422316	6041.384766
7272.254502	0.909990	0.422316	6907.695312
7272.255397	0.108739	0.422316	7005.016602
7272.256293	0.094849	0.422316	7090.000977
7272.257228	0.094944	0.422316	7178.773437
7272.258180	0.094951	0.422316	7269.166992
7272.259062	0.094973	0.422316	7352.933105
7272.259970	0.094915	0.422316	7439.115723
7272.260921	0.094948	0.422316	7529.410645
7272.261845	0.094948	0.422316	7617.142090
7272.262717	0.095017	0.422316	7699.997070
7272.263676	0.094977	0.422316	7791.079590
7273.230285	1.048400	0.627668	464.441071
7273.231212	1.528048	0.627668	1880.941528
7273.232079	1.519486	0.627668	3198.335937
7273.233047	1.478298	0.627668	4629.328613
7273.233997	1.437554	0.627668	5995.004883
7273.234897	1.023446	0.627668	6916.106445
7273.235781	0.127115	0.627668	7028.476562
7273.236705	0.094907	0.627668	7116.170898
7273.237648	0.094915	0.627668	7205.675293
7273.238542	0.094999	0.627668	7290.604004
7273.239460	0.094871	0.627668	7377.695312
7273.240423	0.094962	0.627668	7469.144043
7273.241341	0.094911	0.627668	7556.272461
7273.242212	0.094948	0.627668	7638.971680
7273.243164	0.094955	0.627668	7729.368652
7273.244094	0.094955	0.627668	7817.676758
7274.278366	1.063773	0.395609	474.442841
7274.279236	1.526261	0.395609	1802.289917
7274.280196	1.518391	0.395609	3259.945312
7274.281133	1.476914	0.395609	4643.813477
7274.282057	1.437579	0.395609	5972.136719
7274.282923	1.037743	0.395609	6870.822266
7274.283878	0.121882	0.395609	6987.219727
7274.284831	0.094922	0.395609	7077.680176
7274.285723	0.094948	0.395609	7162.373535
7274.286683	0.095061	0.395609	7253.632324
7274.287729	0.094991	0.395609	7352.993164
7274.288719	0.094940	0.395609	7446.983887
7274.289606	0.094937	0.395609	7531.192383
7274.290575	0.095079	0.395609	7623.324219
7274.291629	0.094904	0.395609	7723.352539
7274.292548	0.094896	0.395609	7810.562012
7275.264070	1.152506	0.574668	632.725830
7275.265110	1.533933	0.574668	2228.016357
7275.265996	1.509950	0.574668	3565.832031
7275.266933	1.468967	0.574668	4942.254395
7275.267993	1.423502	0.574668	6451.166992
7275.268933	0.514189	0.574668	6934.504883
7275.269791	0.097119	0.574668	7017.833008
7275.270841	0.095024	0.574668	7117.608398
7275.271872	0.094966	0.574668	7215.518066
7275.272741	0.094995	0.574668	7298.068848
7275.273701	0.095039	0.574668	7389.306152
7275.274748	0.094962	0.574668	7488.731445
7275.275669	0.094940	0.574668	7576.171387
7275.276531	0.095013	0.574668	7658.072754
7275.277600	0.095065	0.574668	7759.696777
7275.278604	0.094980	0.574668	7855.057129
7276.292548	1.041863	0.434716	450.084686
7276.293483	1.524210	0.434716	1875.221313
7276.294557	1.511631	0.434716	3498.712891
7276.295503	1.470088	0.434716	4889.416016
7276.296379	1.431995	0.434716	6143.843262
7276.297446	0.646201	0.434716	6833.339844
7276.298462	0.096273	0.434716	6931.153320
7276.299356	0.094962	0.434716	7016.049316
7276.300308	0.095013	0.434716	7106.501953
7276.301346	0.094988	0.434716	7205.099121
7276.302273	0.095046	0.434716	7293.207031
7276.303135	0.094969	0.434716	7375.070801
7276.304197	0.095076	0.434716	7476.041016
7276.305196	0.094958	0.434716	7570.904785
7276.306074	0.095032	0.434716	7654.342773
7276.307053	0.095098	0.434716	7747.443359
7277.308346	1.031646	0.466713	439.480988
7277.309260	1.527125	0.466713	1835.273437
7277.310241	1.516600	0.466713	3323.058105
7277.311173	1.476064	0.466713	4698.750000
7277.312043	1.437418	0.466713	5949.303711
7277.313029	0.941935	0.466713	6878.051270
7277.313971	0.111445	0.466713	6983.032715
7277.314862	0.094973	0.466713	7067.653809
7277.315777	0.094999	0.466713	7154.577637
7277.316703	0.094948	0.466713	7242.499023
7277.317645	0.094915	0.466713	7331.908691
7277.318535	0.095017	0.466713	7416.474121
7277.319446	0.094966	0.466713	7502.987793
7277.320402	0.094922	0.466713	7593.732910
7277.321334	0.094973	0.466713	7682.248047
7277.322197	0.094973	0.466713	7764.209961
7278.304705	1.033451	0.553833	442.317017
7278.305651	1.527356	0.553833	1887.195679
7278.306594	1.515809	0.553833	3316.604004
7278.307521	1.475867	0.553833	4684.732422
7278.308404	1.436862	0.553833	5953.480957
7278.309377	0.942704	0.553833	6870.731934
7278.310323	0.109933	0.553833	6974.728516
7278.311215	0.094907	0.553833	7059.385742
7278.312123	0.095013	0.553833	7145.657715
7278.313079	0.094958	0.553833	7236.437988
7278.313997	0.094929	0.553833	7323.583008
7278.314861	0.094991	0.553833	7405.655762
7278.315808	0.095021	0.553833	7495.640625
7278.316747	0.094980	0.553833	7584.827148
7278.317655	0.094995	0.553833	7671.082520
7278.318532	0.094948	0.553833	7754.351562
7279.345607	1.065018	0.403025	461.152924
7279.346585	1.530417	0.403025	1957.901245
7279.347505	1.516154	0.403025	3352.762695
7279.348384	1.477196	0.403025	4651.217773
7279.349358	1.435847	0.403025	6049.732910
7279.350293	0.932706	0.403025	6921.813477
7279.351155	0.114624	0.403025	7020.619141
7279.352105	0.094863	0.403025	7110.739258
7279.353036	0.094948	0.403025	7199.135254
7279.353964	0.094922	0.403025	7287.222656
7279.354827	0.094969	0.403025	7369.181152
7279.355766	0.094951	0.403025	7458.340332
7279.356719	0.094995	0.403025	7548.870605
7279.357611	0.094962	0.403025	7633.576660
7279.358516	0.094918	0.403025	7719.477539
7279.359456	0.094969	0.403025	7808.749023
7280.328196	1.121455	0.593544	548.391541
7280.329096	1.529407	0.593544	1924.857666
7280.330027	1.516436	0.593544	3336.659180
7280.330896	1.476859	0.593544	4620.049805
7280.331893	1.435400	0.593544	6051.144043
7280.332828	0.920061	0.593544	6911.400879
7280.333705	0.112914	0.593544	7010.426270
7280.334634	0.094922	0.593544	7098.608887
7280.335567	0.094896	0.593544	7187.146973
7280.336477	0.094911	0.593544	7273.516113
7280.337367	0.094999	0.593544	7358.064941
7280.338282	0.094988	0.593544	7444.979004
7280.339251	0.095101	0.593544	7537.132324
7280.340167	0.095065	0.593544	7624.211426
7280.341034	0.094988	0.593544	7706.565918
7280.341977	0.094962	0.593544	7796.115234
7281.366988	1.047642	0.432560	451.533539
7281.367913	1.525448	0.432560	1862.572876
7281.368844	1.518420	0.432560	3276.222168
7281.369772	1.477690	0.432560	4647.518555
7281.370640	1.439513	0.432560	5897.015625
7281.371529	1.065037	0.432560	6843.833008
7281.372492	0.123054	0.432560	6962.333984
7281.373445	0.094918	0.432560	7052.791016
7281.374335	0.095046	0.432560	7137.382324
7281.375244	0.094969	0.432560	7223.709473
7281.376193	0.094948	0.432560	7313.814453
7281.377085	0.095006	0.432560	7398.560059
7281.377997	0.094973	0.432560	7485.175781
7281.378962	0.095006	0.432560	7576.856445
7281.379891	0.094991	0.432560	7665.103516
7281.380748	0.095032	0.432560	7746.545898
7282.361323	1.071833	0.535307	509.120911
7282.362256	1.529963	0.535307	1936.576660
7282.363176	1.516293	0.535307	3331.565918
7282.364063	1.477181	0.535307	4641.825684
7282.365039	1.435979	0.535307	6043.341309
7282.365982	0.909316	0.535307	6900.826660
7282.366888	0.108878	0.535307	6999.470215
7282.367748	0.094933	0.535307	7081.112305
7282.368723	0.094944	0.535307	7173.682617
7282.369669	0.095010	0.535307	7263.562012
7282.370541	0.095024	0.535307	7346.423340
7282.371449	0.094973	0.535307	7432.659180
7282.372395	0.094944	0.535307	7522.476074
7282.373313	0.094944	0.535307	7609.634766
7282.374189	0.094966	0.535307	7692.824707
7282.375116	0.094988	0.535307	7780.878418
7283.381750	1.080663	0.469238	508.992187
7283.382686	1.529824	0.469238	1940.907593
7283.383562	1.517823	0.469238	3270.520996
7283.384496	1.478075	0.469238	4651.042969
7283.385435	1.436979	0.469238	6000.366211
7283.386366	0.958220	0.469238	6892.469238
7283.387247	0.116400	0.469238	6995.017578
7283.388173	0.094896	0.469238	7082.891602
7283.389123	0.094966	0.469238	7173.108887
7283.390043	0.094915	0.469238	7260.430176
7283.390906	0.094966	0.469238	7342.385742
7283.391882	0.094911	0.469238	7435.018555
7283.392829	0.094973	0.469238	7524.958008
7283.393725	0.095035	0.469238	7610.109863
7283.394643	0.095017	0.469238	7697.335449
7283.395566	0.094918	0.469238	7784.944824
7284.399063	1.072811	0.427658	488.129181
7284.399955	1.527850	0.427658	1850.971558
7284.400827	1.519688	0.427658	3176.139160
7284.401805	1.478057	0.427658	4621.678711
7284.402760	1.437495	0.427658	5994.486328
7284.403661	1.025687	0.427658	6918.630371
7284.404583	0.126621	0.427658	7035.375000
7284.405542	0.094918	0.427658	7126.401367
7284.406466	0.094955	0.427658	7214.139648
7284.407326	0.094948	0.427658	7295.794434
7284.408244	0.094969	0.427658	7382.976562
7284.409200	0.095002	0.427658	7473.798828
7284.410087	0.094973	0.427658	7558.040039
7284.410991	0.094962	0.427658	7643.885742
7284.411936	0.095024	0.427658	7733.683594
7284.412854	0.095010	0.427658	7820.902344
7285.397528	1.103621	0.514795	570.571899
7285.398424	1.529700	0.514795	1941.182861
7285.399350	1.516091	0.514795	3345.083496
7285.400220	1.477277	0.514795	4630.314453
7285.401182	1.435800	0.514795	6011.553711
7285.402122	0.918285	0.514795	6874.741699
7285.403045	0.109373	0.514795	6975.692383
7285.403914	0.094900	0.514795	7058.160156
7285.404882	0.094988	0.514795	7150.108398
7285.405830	0.095013	0.514795	7240.181152
7285.406723	0.094995	0.514795	7325.011719
7285.407632	0.094918	0.514795	7411.292480
7285.408565	0.094933	0.514795	7499.864746
7285.409472	0.094973	0.514795	7586.005371
7285.410336	0.095013	0.514795	7668.097168
7285.411346	0.094951	0.514795	7763.998047
7286.434263	1.063722	0.396708	464.846466
7286.435153	1.527275	0.396708	1824.121582
7286.436088	1.518666	0.396708	3244.074219
7286.436963	1.478771	0.396708	4537.998535
7286.437961	1.437188	0.396708	5972.311523
7286.438896	0.989158	0.396708	6897.173828
7286.439774	0.120183	0.396708	7002.694824
7286.440729	0.094841	0.396708	7093.268066
7286.441671	0.094918	0.396708	7182.681152
7286.442594	0.094951	0.396708	7270.321289
7286.443452	0.094980	0.396708	7351.814453
7286.444384	0.094929	0.396708	7440.288574
7286.445333	0.094969	0.396708	7530.414551
7286.446252	0.094958	0.396708	7617.681641
7286.447125	0.094911	0.396708	7700.539062
7286.448098	0.095013	0.396708	7792.987305
7287.417824	1.058829	0.542344	486.002716
7287.418726	1.527722	0.542344	1864.008179
7287.419608	1.519233	0.542344	3203.972168
7287.420551	1.479232	0.542344	4598.888184
7287.421512	1.437561	0.542344	5980.384277
7287.422452	0.980607	0.542344	6902.154785
7287.423317	0.121058	0.542344	7006.870117
7287.424272	0.094871	0.542344	7097.471680
7287.425215	0.094885	0.542344	7186.948242
7287.426125	0.094955	0.542344	7273.356934
7287.427006	0.094944	0.542344	7357.002441
7287.427963	0.094944	0.542344	7447.863770
7287.428886	0.095021	0.542344	7535.567871
7287.429765	0.095010	0.542344	7619.081543
7287.430755	0.094944	0.542344	7713.076172
7287.431704	0.094991	0.542344	7803.223145
7288.465350	1.046532	0.373288	451.055267
7288.466223	1.525312	0.373288	1782.653076
7288.467181	1.519274	0.373288	3238.117187
7288.468077	1.479748	0.373288	4563.971680
7288.468996	1.440245	0.373288	5887.557129
7288.469869	1.132302	0.373288	6876.057129
7288.470886	0.124797	0.373288	7002.976074
7288.471808	0.094852	0.373288	7090.429687
7288.472718	0.094933	0.373288	7176.818359
7288.473578	0.095028	0.373288	7258.542480
7288.474547	0.094951	0.373288	7350.550293
7288.475469	0.094915	0.373288	7438.061523
7288.476361	0.094973	0.373288	7522.777344
7288.477266	0.094984	0.373288	7608.737793
7288.478227	0.094969	0.373288	7700.003418
7288.479144	0.094958	0.373288	7787.080566
7289.442746	1.033411	0.561926	435.065826
7289.443800	1.531824	0.561926	2049.608154
7289.444699	1.514143	0.561926	3410.822754
7289.445581	1.475248	0.561926	4711.991211
7289.446555	1.434122	0.561926	6108.826172
7289.447516	0.829343	0.561926	6905.825195
7289.448437	0.103942	0.561926	7001.555664
7289.449301	0.094885	0.561926	7083.536621
7289.450335	0.095017	0.561926	7181.784180
7289.451219	0.094896	0.561926	7265.672363
7289.452081	0.094966	0.561926	7347.532715
7289.453009	0.094966	0.561926	7435.661133
7289.453991	0.094969	0.561926	7528.921387
7289.454903	0.094907	0.561926	7615.476562
7289.455789	0.094856	0.561926	7699.519043
7289.456780	0.094937	0.561926	7793.601074
7290.492348	1.028515	0.352747	437.118652
7290.493375	1.529301	0.352747	2007.710327
7290.494263	1.515308	0.352747	3353.303711
7290.495189	1.474922	0.352747	4719.081543
7290.496073	1.435734	0.352747	5988.270020
7290.497123	0.811666	0.352747	6840.519531
7290.498016	0.103579	0.352747	6933.015625
7290.498890	0.094933	0.352747	7015.986816
7290.499872	0.094915	0.352747	7109.192871
7290.500815	0.094973	0.352747	7198.752441
7290.501734	0.094977	0.352747	7286.036133
7290.502598	0.095065	0.352747	7368.171875
7290.503632	0.094951	0.352747	7466.351562
7290.504514	0.094988	0.352747	7550.130859
7290.505379	0.094984	0.352747	7632.291992
7290.506324	0.095035	0.352747	7722.100586
7291.469845	1.112219	0.560093	559.446289
7291.470757	1.531003	0.560093	1955.721313
7291.471639	1.517021	0.560093	3293.734375
7291.472621	1.474819	0.560093	4742.006836
7291.473634	1.430570	0.560093	6191.174316
7291.474533	0.824308	0.560093	6932.227051
7291.475393	0.106307	0.560093	7023.651367
7291.476466	0.094937	0.560093	7125.518066
7291.477385	0.095010	0.560093	7212.832031
7291.478257	0.094907	0.560093	7295.591309
7291.479230	0.095017	0.560093	7388.042969
7291.480242	0.094999	0.560093	7484.181641
7291.481125	0.094973	0.560093	7568.042969
7291.481981	0.094977	0.560093	7649.343262
7291.483019	0.095028	0.560093	7747.982422
7291.483957	0.094926	0.560093	7837.022461
7292.517332	1.057434	0.353340	464.213562
7292.518210	1.526298	0.353340	1804.302734
7292.519070	1.520870	0.353340	3112.251221
7292.520113	1.476511	0.353340	4652.252441
7292.521011	1.437788	0.353340	5943.386230
7292.521898	1.078693	0.353340	6900.186523
7292.522861	0.134791	0.353340	7029.990723
7292.523813	0.094849	0.353340	7120.286621
7292.524730	0.094841	0.353340	7207.255859
7292.525600	0.094922	0.353340	7289.837891
7292.526643	0.094929	0.353340	7388.849121
7292.527532	0.094991	0.353340	7473.296387
7292.528404	0.094926	0.353340	7556.071289
7292.529278	0.095002	0.353340	7639.103516
7292.530315	0.094874	0.353340	7737.488281
7292.531193	0.094900	0.353340	7820.810547
7293.496355	1.118932	0.553591	574.012085
7293.497264	1.531062	0.553591	1965.747437
7293.498138	1.517164	0.553591	3291.749023
7293.499151	1.473732	0.553591	4784.639160
7293.500143	1.430087	0.553591	6203.285156
7293.501035	0.819595	0.553591	6934.363770
7293.501890	0.106219	0.553591	7025.181641
7293.502962	0.094841	0.553591	7126.851562
7293.503865	0.094889	0.553591	7212.536133
7293.504741	0.094896	0.553591	7295.665039
7293.505706	0.094995	0.553591	7387.335449
7293.506720	0.094940	0.553591	7483.604980
7293.507605	0.094980	0.553591	7567.662598
7293.508469	0.094951	0.553591	7649.700195
7293.509536	0.095024	0.553591	7751.091309
7293.510467	0.094860	0.553591	7839.405762
7294.543351	1.100424	0.351986	518.299500
7294.544233	1.528575	0.351986	1866.502930
7294.545098	1.519329	0.351986	3180.722168
7294.546188	1.473574	0.351986	4786.917969
7294.547108	1.433588	0.351986	6105.818359
7294.547981	0.945264	0.351986	6931.033691
7294.548961	0.114294	0.351986	7043.042480
7294.549972	0.094786	0.351986	7138.871582
7294.550859	0.094867	0.351986	7223.018555
7294.551722	0.094962	0.351986	7304.970703
7294.552785	0.094882	0.351986	7405.830078
7294.553725	0.094893	0.351986	7495.029297
7294.554606	0.095002	0.351986	7578.726562
7294.555547	0.094991	0.351986	7668.113281
7294.556569	0.094940	0.351986	7765.142090
7294.557460	0.094973	0.351986	7849.763184
7295.522890	1.157351	0.551158	652.746033
7295.523790	1.532186	0.551158	2031.713623
7295.524715	1.513682	0.551158	3431.869141
7295.525582	1.473589	0.551158	4709.470703
7295.526618	1.430471	0.551158	6191.438965
7295.527517	0.813131	0.551158	6922.443848
7295.528437	0.102755	0.551158	7016.978516
7295.529299	0.094937	0.551158	7098.813965
7295.530299	0.094966	0.551158	7193.779785
7295.531229	0.095013	0.551158	7282.142090
7295.532096	0.095043	0.551158	7364.543945
7295.533119	0.095054	0.551158	7461.783691
7295.533998	0.094977	0.551158	7545.268066
7295.534917	0.094980	0.551158	7632.555176
7295.535781	0.094977	0.551158	7714.615234
7295.536707	0.094962	0.551158	7802.550293
7296.570327	1.068442	0.324489	473.320007
7296.571206	1.526847	0.324489	1815.418457
7296.572066	1.520709	0.324489	3123.228516
7296.573127	1.476467	0.324489	4689.760254
7296.574013	1.437762	0.324489	5963.617676
7296.574888	1.077883	0.324489	6906.765625
7296.575863	0.132587	0.324489	7036.037598
7296.576797	0.094871	0.324489	7124.646973
7296.577704	0.094944	0.324489	7210.761230
7296.578582	0.094929	0.324489	7294.108887
7296.579627	0.094995	0.324489	7393.378906
7296.580521	0.094915	0.324489	7478.232422
7296.581396	0.094977	0.324489	7561.336914
7296.582312	0.094933	0.324489	7648.295410
7296.583294	0.094980	0.324489	7741.566406
7296.584222	0.094948	0.324489	7829.677734
7297.549357	1.135657	0.574285	599.626770
7297.550267	1.531710	0.574285	1993.482910
7297.551195	1.514128	0.574285	3398.594238
7297.552065	1.474189	0.574285	4681.139160
7297.553127	1.430467	0.574285	6200.295898
7297.554031	0.802163	0.574285	6925.451172
7297.554909	0.104535	0.574285	7017.232910
7297.555915	0.094962	0.574285	7112.764648
7297.556837	0.095021	0.574285	7200.374023
7297.557757	0.094977	0.574285	7287.752930
7297.558615	0.095039	0.574285	7369.296387
7297.559649	0.094999	0.574285	7467.524902
7297.560544	0.094977	0.574285	7552.529297
7297.561419	0.094973	0.574285	7635.630859
7297.562380	0.095072	0.574285	7726.995117
7297.563340	0.095017	0.574285	7818.211426
7298.593240	1.055665	0.331244	463.437042
7298.594123	1.526107	0.331244	1810.989624
7298.594995	1.521621	0.331244	3137.843262
7298.595954	1.481052	0.331244	4558.172363
7298.596895	1.439279	0.331244	5912.533691
7298.597804	1.059243	0.331244	6875.385742
7298.598684	0.132334	0.331244	6991.839844
7298.599718	0.094889	0.331244	7089.955078
7298.600609	0.094958	0.331244	7174.562988
7298.601521	0.094984	0.331244	7261.188477
7298.602383	0.094918	0.331244	7343.007812
7298.603382	0.095043	0.331244	7437.955566
7298.604310	0.095032	0.331244	7526.145020
7298.605174	0.095032	0.331244	7608.252441
7298.606204	0.095010	0.331244	7706.112305
7298.607082	0.094995	0.331244	7789.518066
7299.578297	1.035110	0.540520	438.886597
7299.579326	1.530333	0.540520	2013.599365
7299.580222	1.515220	0.540520	3371.236328
7299.581103	1.476588	0.540520	4672.110352
7299.582039	1.436470	0.540520	6016.645996
7299.583048	0.867155	0.540520	6891.604980
7299.583977	0.104561	0.540520	6988.741699
7299.584841	0.094871	0.540520	7070.709961
7299.585878	0.095043	0.540520	7169.269043
7299.586765	0.094958	0.540520	7253.497070
7299.587637	0.094933	0.540520	7336.278320
7299.588495	0.095021	0.540520	7417.806152
7299.589549	0.094999	0.540520	7517.935059
7299.590448	0.094896	0.540520	7603.246582
7299.591324	0.094933	0.540520	7686.407715
7299.592304	0.094999	0.540520	7779.506348
7300.614589	1.032283	0.329480	438.720154
7300.615584	1.526949	0.329480	1958.034912
7300.616501	1.515487	0.329480	3347.736328
7300.617416	1.475577	0.329480	4697.889648
7300.618295	1.437114	0.329480	5961.113281
7300.619341	0.850096	0.329480	6850.314453
7300.620230	0.105970	0.329480	6944.521973
7300.621108	0.094841	0.329480	7027.792480
7300.622081	0.095024	0.329480	7120.251465
7300.623043	0.094973	0.329480	7211.615723
7300.623965	0.094966	0.329480	7299.174316
7300.624831	0.094999	0.329480	7381.443359
7300.625852	0.094933	0.329480	7478.369629
7300.626726	0.094867	0.329480	7561.283203
7300.627589	0.094922	0.329480	7643.200684
7300.628479	0.094937	0.329480	7727.694336
7301.612540	1.096725	0.470866	528.621399
7301.613413	1.528418	0.470866	1862.930176
7301.614372	1.516282	0.470866	3317.044434
7301.615433	1.469751	0.470866	4876.450195
7301.616365	1.429816	0.470866	6209.038086
7301.617242	0.819089	0.470866	6927.379395
7301.618298	0.099115	0.470866	7032.044922
7301.619295	0.094955	0.470866	7126.714844
7301.620177	0.094966	0.470866	7210.474609
7301.621036	0.094955	0.470866	7292.041016
7301.622117	0.095013	0.470866	7394.750488
7301.623050	0.095024	0.470866	7483.408203
7301.623929	0.095028	0.470866	7566.937988
7301.624882	0.095043	0.470866	7657.513672
7301.625895	0.094966	0.470866	7753.713867
7301.626766	0.094951	0.470866	7836.416504
7302.630928	1.078740	0.359729	549.078796
7302.631992	1.533003	0.359729	2180.193848
7302.632931	1.508602	0.359729	3596.771484
7302.633803	1.469209	0.359729	4877.921875
7302.634879	1.424312	0.359729	6410.480957
7302.635884	0.443943	0.359729	6856.643555
7302.636766	0.096094	0.359729	6941.398437
7302.637758	0.094937	0.359729	7035.575684
7302.638808	0.094999	0.359729	7135.324219
7302.639708	0.094918	0.359729	7220.750488
7302.640566	0.095013	0.359729	7302.271973
7302.641645	0.094973	0.359729	7404.748047
7302.642639	0.094948	0.359729	7499.125977
7302.643514	0.094900	0.359729	7582.163574
7302.644502	0.095112	0.359729	7676.134766
7302.645553	0.095032	0.359729	7776.013184
7303.649220	1.038823	0.401591	449.810455
7303.650089	1.524349	0.401591	1774.469971
7303.651162	1.514081	0.401591	3399.078613
7303.652210	1.468828	0.401591	4938.410645
7303.653094	1.430204	0.401591	6202.710937
7303.654016	0.783135	0.401591	6924.761230
7303.655099	0.097584	0.401591	7030.444824
7303.656053	0.094922	0.401591	7121.000488
7303.656920	0.094995	0.401591	7203.361328
7303.657955	0.095032	0.401591	7301.719238
7303.658973	0.094918	0.401591	7398.346191
7303.659851	0.094933	0.401591	7481.697266
7303.660794	0.095013	0.401591	7571.294922
7303.661859	0.095010	0.401591	7672.480469
7303.662790	0.095006	0.401591	7760.931152
7303.663650	0.094969	0.401591	7842.604980
7304.645569	1.030843	0.432625	440.170166
7304.646507	1.524635	0.432625	1870.277710
7304.647478	1.516531	0.432625	3342.829102
7304.648386	1.475863	0.432625	4682.912598
7304.649274	1.437645	0.432625	5959.541504
7304.650199	1.008615	0.432625	6892.509766
7304.651148	0.114192	0.432625	7000.877930
7304.652069	0.094900	0.432625	7088.280762
7304.652964	0.095068	0.432625	7173.367187
7304.653962	0.095079	0.432625	7268.256348
7304.655015	0.095076	0.432625	7368.371094
7304.655967	0.094962	0.432625	7458.774902
7304.656828	0.095046	0.432625	7540.609863
7304.657880	0.095090	0.432625	7640.645020
7304.658888	0.095002	0.432625	7736.407715
7304.659771	0.095032	0.432625	7820.320801
7305.684504	1.114109	0.377433	557.054443
7305.685520	1.533878	0.377433	2115.474609
7305.686409	1.512774	0.377433	3460.330322
7305.687384	1.470095	0.377433	4893.673340
7305.688444	1.424509	0.377433	6403.653320
7305.689365	0.566638	0.377433	6925.527344
7305.690230	0.097830	0.377433	7010.149902
7305.691315	0.095006	0.377433	7113.231445
7305.692301	0.095010	0.377433	7206.911133
7305.693193	0.094988	0.377433	7291.640137
7305.694176	0.095101	0.377433	7385.124512
7305.695221	0.094973	0.377433	7484.371582
7305.696125	0.094973	0.377433	7570.227539
7305.696987	0.095054	0.377433	7652.164062
7305.698076	0.095021	0.377433	7755.641602
7305.699038	0.095013	0.377433	7847.044434
7306.668984	1.024944	0.464799	431.501343
7306.669893	1.523687	0.464799	1816.532349
7306.670865	1.517607	0.464799	3291.646973
7306.671793	1.476716	0.464799	4662.040039
7306.672662	1.438883	0.464799	5912.429199
7306.673639	0.996112	0.464799	6885.630859
7306.674563	0.115547	0.464799	6992.395996
7306.675482	0.094871	0.464799	7079.582031
7306.676339	0.094995	0.464799	7160.992676
7306.677293	0.094904	0.464799	7251.530762
7306.678247	0.094918	0.464799	7342.082520
7306.679140	0.095035	0.464799	7426.949219
7306.680046	0.094929	0.464799	7512.955078
7306.680986	0.094878	0.464799	7602.140137
7306.681889	0.094962	0.464799	7687.891113
7306.682751	0.094907	0.464799	7769.701172
7307.708863	1.037421	0.358049	442.978607
7307.709840	1.528301	0.358049	1936.128540
7307.710775	1.516322	0.358049	3353.889648
7307.711700	1.475753	0.358049	4718.961426
7307.712577	1.437462	0.358049	5979.615723
7307.713518	0.954968	0.358049	6878.240723
7307.714458	0.111251	0.358049	6982.816895
7307.715345	0.094929	0.358049	7067.019043
7307.716445	0.094991	0.358049	7171.509766
7307.717398	0.094991	0.358049	7262.036621
7307.718325	0.095006	0.358049	7350.107422
7307.719196	0.094944	0.358049	7432.803711
7307.720161	0.094999	0.358049	7524.477539
7307.721108	0.094969	0.358049	7614.413574
7307.721994	0.094962	0.358049	7698.549805
7307.722878	0.094937	0.358049	7782.473633
7308.701124	1.036578	0.451937	445.728729
7308.701992	1.524163	0.451937	1768.701904
7308.702960	1.518926	0.451937	3239.021973
7308.703909	1.477471	0.451937	4641.141602
7308.704810	1.438370	0.451937	5937.113281
7308.705681	1.049498	0.451937	6851.226562
7308.706654	0.123007	0.451937	6970.912109
7308.707612	0.094893	0.451937	7061.819336
7308.708496	0.094999	0.451937	7145.798340
7308.709422	0.094973	0.451937	7233.743652
7308.710372	0.094955	0.451937	7323.950684
7308.711274	0.094940	0.451937	7409.586914
7308.712148	0.094958	0.451937	7492.580566
7308.713079	0.094958	0.451937	7580.986816
7308.714012	0.094867	0.451937	7669.497559
7308.714931	0.094926	0.451937	7756.734375
7309.723603	1.053666	0.379737	461.505615
7309.724478	1.525474	0.379737	1796.295044
7309.725341	1.521643	0.379737	3109.473145
7309.726327	1.480642	0.379737	4569.386230
7309.727238	1.439180	0.379737	5880.479004
7309.728162	1.073353	0.379737	6872.257324
7309.729034	0.135414	0.379737	6990.338379
7309.730006	0.094915	0.379737	7082.595215
7309.730927	0.094944	0.379737	7170.038574
7309.731786	0.094980	0.379737	7251.626953
7309.732754	0.094988	0.379737	7343.575195
7309.733702	0.094988	0.379737	7433.623535
7309.734585	0.094962	0.379737	7517.475098
7309.735465	0.094980	0.379737	7601.058105
7309.736402	0.095013	0.379737	7690.085449
7309.737335	0.094995	0.379737	7778.715820
7310.738934	1.094114	0.365195	529.551086
7310.739897	1.530948	0.365195	2003.854492
7310.740822	1.514645	0.365195	3404.900879
7310.741689	1.475687	0.365195	4684.321777
7310.742659	1.434939	0.365195	6076.212402
7310.743618	0.882748	0.365195	6922.767578
7310.744503	0.107798	0.365195	7018.168457
7310.745375	0.094783	0.365195	7100.818848
7310.746330	0.094907	0.365195	7191.455078
7310.747257	0.094966	0.365195	7279.488281
7310.748151	0.094878	0.365195	7364.309082
7310.749065	0.094885	0.365195	7451.034180
7310.750017	0.094922	0.365195	7541.399902
7310.750903	0.094980	0.365195	7625.552734
7310.751815	0.094933	0.365195	7712.131348
7310.752746	0.094900	0.365195	7800.483398
7311.735788	1.100486	0.440666	520.529846
7311.736719	1.530051	0.440666	1945.007568
7311.737603	1.517651	0.440666	3286.611328
7311.738519	1.477441	0.440666	4639.947266
7311.739474	1.436492	0.440666	6011.796875
7311.740406	0.975337	0.440666	6920.811035
7311.741269	0.120194	0.440666	7024.538574
7311.742238	0.094896	0.440666	7116.493164
7311.743152	0.094849	0.440666	7203.184570
7311.744043	0.094955	0.440666	7287.789551
7311.744919	0.094867	0.440666	7370.893066
7311.745888	0.094907	0.440666	7462.858398
7311.746835	0.094948	0.440666	7552.773926
7311.747720	0.094933	0.440666	7636.789551
7311.748625	0.094948	0.440666	7722.717285
7311.749585	0.094918	0.440666	7813.838867
7312.775152	1.079513	0.319071	518.166199
7312.776087	1.531135	0.319071	1949.777832
7312.777019	1.515560	0.319071	3362.280029
7312.777898	1.476489	0.319071	4660.114258
7312.778874	1.435279	0.319071	6060.947266
7312.779832	0.884531	0.319071	6908.328125
7312.780724	0.106699	0.319071	7003.503906
7312.781633	0.094907	0.319071	7089.774414
7312.782562	0.094933	0.319071	7177.966797
7312.783514	0.094991	0.319071	7268.398437
7312.784389	0.094977	0.319071	7351.502930
7312.785293	0.094955	0.319071	7437.342285
7312.786247	0.094926	0.319071	7527.901367
7312.787174	0.094984	0.319071	7615.951660
7312.788050	0.094933	0.319071	7699.112793
7312.789011	0.094955	0.319071	7790.364258
7313.756619	1.052776	0.488022	463.221436
7313.757489	1.524540	0.488022	1789.570923
7313.758478	1.517087	0.488022	3289.970459
7313.759402	1.476837	0.488022	4654.567871
7313.760284	1.438641	0.488022	5923.449219
7313.761226	1.032323	0.488022	6895.897461
7313.762175	0.121882	0.488022	7011.563965
7313.763100	0.094929	0.488022	7099.373535
7313.763963	0.095046	0.488022	7181.398437
7313.764885	0.095010	0.488022	7268.997559
7313.765852	0.095050	0.488022	7360.911133
7313.766775	0.095010	0.488022	7448.604980
7313.767652	0.094929	0.488022	7531.857910
7313.768623	0.095010	0.488022	7624.112305
7313.769538	0.094995	0.488022	7711.032715
7313.770405	0.095017	0.488022	7793.412598
7314.803143	1.047415	0.290482	455.625336
7314.804012	1.525258	0.290482	1781.074219
7314.804996	1.517955	0.290482	3274.742187
7314.805930	1.477181	0.290482	4654.429687
7314.806829	1.438107	0.290482	5947.287598
7314.807760	1.024603	0.290482	6901.193359
7314.808684	0.115228	0.290482	7007.664062
7314.809629	0.094896	0.290482	7097.340820
7314.810517	0.095010	0.290482	7181.709473
7314.811444	0.095021	0.290482	7269.793945
7314.812388	0.094966	0.290482	7359.441895
7314.813313	0.094995	0.290482	7447.312500
7314.814171	0.094900	0.290482	7528.736816
7314.815116	0.094922	0.290482	7618.437988
7314.816052	0.094955	0.290482	7707.315918
7314.816950	0.094969	0.290482	7792.598633
7315.787323	1.122275	0.477952	620.618286
7315.788262	1.532970	0.477952	2060.077148
7315.789184	1.512843	0.477952	3454.918457
7315.790054	1.473706	0.477952	4737.042969
7315.791101	1.429885	0.477952	6234.132812
7315.791993	0.789159	0.477952	6938.062500
7315.792858	0.103821	0.477952	7027.867676
7315.793804	0.094889	0.477952	7117.632812
7315.794776	0.094937	0.477952	7209.911133
7315.795690	0.094871	0.477952	7296.623047
7315.796565	0.094922	0.477952	7379.679687
7315.797606	0.094962	0.477952	7478.535156
7315.798502	0.094944	0.477952	7563.604980
7315.799377	0.094973	0.477952	7646.706543
7315.800233	0.095006	0.477952	7728.031738
7315.801277	0.094944	0.477952	7827.153320
7316.820991	1.097512	0.326028	524.610840
7316.821884	1.529231	0.326028	1890.214111
7316.822799	1.517911	0.326028	3279.103027
7316.823679	1.478840	0.326028	4580.482422
7316.824652	1.437114	0.326028	5978.794434
7316.825598	0.960260	0.326028	6887.200195
7316.826493	0.115206	0.326028	6990.310059
7316.827514	0.094885	0.326028	7087.187988
7316.828406	0.094871	0.326028	7171.812500
7316.829322	0.094922	0.326028	7258.760742
7316.830188	0.094911	0.326028	7340.953613
7316.831201	0.094937	0.326028	7437.124512
7316.832102	0.094911	0.326028	7522.639160
7316.833020	0.094922	0.326028	7609.777344
7316.833897	0.094900	0.326028	7693.004395
7316.834896	0.095010	0.326028	7787.918945
7317.825988	1.039237	0.411359	445.832733
7317.826958	1.524294	0.411359	1924.398315
7317.827905	1.514985	0.411359	3359.089355
7317.828845	1.473911	0.411359	4744.565918
7317.829729	1.435843	0.411359	6013.851562
7317.830751	0.833800	0.411359	6865.995117
7317.831651	0.103982	0.411359	6959.579102
7317.832522	0.094904	0.411359	7042.240234
7317.833405	0.095024	0.411359	7126.146973
7317.834446	0.094995	0.411359	7225.037109
7317.835333	0.094951	0.411359	7309.258789
7317.836206	0.094915	0.411359	7392.119141
7317.837197	0.094988	0.411359	7486.251953
7317.838120	0.094948	0.411359	7573.888672
7317.839029	0.094937	0.411359	7660.186035
7317.839890	0.095032	0.411359	7742.008301
7318.834177	1.099083	0.391069	526.460815
7318.835060	1.528477	0.391069	1876.105591
7318.835930	1.519874	0.391069	3198.395996
7318.836921	1.478016	0.391069	4663.110352
7318.837850	1.436320	0.391069	5997.451172
7318.838767	0.985247	0.391069	6900.922363
7318.839642	0.120231	0.391069	7006.124023
7318.840662	0.094907	0.391069	7102.929199
7318.841560	0.095006	0.391069	7188.244629
7318.842434	0.095013	0.391069	7271.286133
7318.843322	0.095087	0.391069	7355.723145
7318.844354	0.094984	0.391069	7453.746582
7318.845243	0.094955	0.391069	7538.161621
7318.846115	0.095057	0.391069	7621.051758
7318.847125	0.095050	0.391069	7717.052246
7318.848030	0.094966	0.391069	7802.996094
7319.862709	1.026687	0.355736	431.208557
7319.863725	1.528777	0.355736	1984.445801
7319.864650	1.514377	0.355736	3385.245117
7319.865573	1.474471	0.355736	4746.182129
7319.866442	1.435371	0.355736	5993.519531
7319.867500	0.802291	0.355736	6842.343750
7319.868390	0.103832	0.355736	6934.753906
7319.869264	0.094929	0.355736	7017.722168
7319.870258	0.095006	0.355736	7112.158203
7319.871189	0.094966	0.355736	7200.571289
7319.872115	0.094984	0.355736	7288.526367
7319.872973	0.095006	0.355736	7370.041504
7319.873981	0.094951	0.355736	7465.752441
7319.874881	0.094988	0.355736	7551.241211
7319.875757	0.095021	0.355736	7634.479492
7319.876666	0.095087	0.355736	7720.913086
7320.851901	1.030254	0.459534	436.827637
7320.852873	1.523785	0.459534	1917.947021
7320.853906	1.512433	0.459534	3480.290039
7320.854793	1.472589	0.459534	4786.476562
7320.855663	1.434833	0.459534	6034.781250
7320.856709	0.768567	0.459534	6838.702148
7320.857652	0.099924	0.459534	6932.930664
7320.858529	0.094926	0.459534	7016.180176
7320.859450	0.094955	0.459534	7103.633789
7320.860509	0.094944	0.459534	7204.179199
7320.861401	0.094955	0.459534	7288.878906
7320.862264	0.094929	0.459534	7370.802734
7320.863297	0.095127	0.459534	7469.068848
7320.864260	0.094977	0.459534	7560.531738
7320.865131	0.094951	0.459534	7643.234375
7320.866012	0.095061	0.459534	7726.982910
7321.892889	1.122484	0.337573	569.099426
7321.893898	1.533856	0.337573	2116.760254
7321.894788	1.512675	0.337573	3463.040527
7321.895764	1.470282	0.337573	4898.035645
7321.896813	1.424996	0.337573	6392.856445
7321.897738	0.576694	0.337573	6926.298828
7321.898599	0.098038	0.337573	7010.709961
7321.899694	0.095043	0.337573	7114.781738
7321.900676	0.094929	0.337573	7208.002441
7321.901570	0.094991	0.337573	7292.924805
7321.902552	0.094995	0.337573	7386.209961
7321.903614	0.094958	0.337573	7487.055664
7321.904511	0.094958	0.337573	7572.233398
7321.905368	0.094995	0.337573	7653.644043
7321.906469	0.095054	0.337573	7758.298340
7321.907437	0.094900	0.337573	7850.161621
7322.876894	1.066992	0.463869	480.146484
7322.877763	1.525763	0.463869	1806.034424
7322.878740	1.517263	0.463869	3288.400391
7322.879652	1.476727	0.463869	4635.175781
7322.880548	1.438378	0.463869	5923.961914
7322.881469	1.041515	0.463869	6883.197266
7322.882425	0.120088	0.463869	6998.001465
7322.883345	0.094856	0.463869	7085.269043
7322.884215	0.094907	0.463869	7167.838379
7322.885182	0.094933	0.463869	7259.638672
7322.886122	0.094918	0.463869	7348.861816
7322.887043	0.094995	0.463869	7436.352539
7322.887904	0.094988	0.463869	7518.137207
7322.888869	0.094977	0.463869	7609.790039
7322.889802	0.094980	0.463869	7698.406738
7322.890689	0.094980	0.463869	7782.654297
7323.918831	1.088423	0.310329	509.381927
7323.919720	1.529132	0.310329	1868.780273
7323.920602	1.520028	0.310329	3209.445068
7323.921514	1.479767	0.310329	4558.992187
7323.922493	1.437773	0.310329	5966.572266
7323.923432	0.999108	0.310329	6904.734375
7323.924293	0.122944	0.310329	7010.589355
7323.925266	0.094926	0.310329	7102.952148
7323.926198	0.094973	0.310329	7191.467285
7323.927093	0.094966	0.310329	7276.461914
7323.927969	0.094922	0.310329	7359.613281
7323.928905	0.094969	0.310329	7448.504883
7323.929857	0.094955	0.310329	7538.901855
7323.930751	0.094958	0.310329	7623.794922
7323.931664	0.094911	0.310329	7710.448730
7323.932622	0.095032	0.310329	7801.489258
7324.905445	1.060990	0.435888	486.994385
7324.906334	1.527935	0.435888	1845.328247
7324.907248	1.518951	0.435888	3233.649902
7324.908196	1.477225	0.435888	4634.059570
7324.909128	1.436616	0.435888	5972.985840
7324.910026	1.032484	0.435888	6900.156738
7324.910954	0.121926	0.435888	7013.304199
7324.911901	0.094878	0.435888	7103.153809
7324.912826	0.094944	0.435888	7190.977051
7324.913688	0.094915	0.435888	7272.793457
7324.914627	0.094944	0.435888	7361.945801
7324.915581	0.094863	0.435888	7452.445312
7324.916473	0.094896	0.435888	7537.092773
7324.917341	0.094940	0.435888	7619.500977
7324.918305	0.094889	0.435888	7710.974121
7324.919256	0.094863	0.435888	7801.188965
