time (s)	coil I (A)	last det (V)	int current (uC)
7631.121426	1.126794	0.654815	543.114868
7631.122371	1.530992	0.654815	1989.902710
7631.123259	1.516802	0.654815	3336.822754
7631.124198	1.475570	0.654815	4722.382812
7631.125163	1.434309	0.654815	6106.491211
7631.126092	1.395692	0.654815	7403.089355
7631.126966	1.014001	0.654815	8289.326172
7631.127918	0.120190	0.654815	8403.747070
7631.128849	0.094823	0.654815	8492.027344
7631.129759	0.094922	0.654815	8578.406250
7631.130621	0.094878	0.654815	8660.191406
7631.131585	0.094889	0.654815	8751.664062
7631.132525	0.094889	0.654815	8840.859375
7631.133407	0.094940	0.654815	8924.596680
7631.134376	0.095006	0.654815	9016.657227
7631.135436	0.094988	0.654815	9117.344727
7631.136428	0.094882	0.654815	9211.466797
7632.111039	1.050828	0.712650	444.500092
7632.112157	1.531351	0.712650	2156.550781
7632.113122	1.509218	0.712650	3612.945801
7632.113998	1.470491	0.712650	4901.095703
7632.114891	1.430654	0.712650	6178.669922
7632.115994	1.387295	0.712650	7708.856445
7632.116886	0.712573	0.712650	8344.471680
7632.117742	0.101587	0.712650	8431.429687
7632.118776	0.094937	0.712650	8529.593750
7632.119744	0.094933	0.712650	8621.488281
7632.120619	0.095006	0.712650	8704.618164
7632.121477	0.094889	0.712650	8786.033203
7632.122584	0.094966	0.712650	8891.160156
7632.123492	0.094893	0.712650	8977.322266
7632.124359	0.094962	0.712650	9059.654297
7632.125465	0.095021	0.712650	9164.747070
7632.126431	0.094918	0.712650	9256.438477
7633.178044	1.026551	0.706627	433.204712
7633.179063	1.527308	0.706627	1989.531860
7633.179976	1.514758	0.706627	3372.506348
7633.180897	1.474966	0.706627	4730.949707
7633.181772	1.435997	0.706627	5987.447266
7633.182815	1.393693	0.706627	7441.068359
7633.183715	0.936500	0.706627	8283.918945
7633.184591	0.115862	0.706627	8385.414062
7633.185563	0.094948	0.706627	8477.703125
7633.186512	0.094830	0.706627	8567.697266
7633.187432	0.094926	0.706627	8655.028320
7633.188297	0.094933	0.706627	8737.145508
7633.189345	0.094882	0.706627	8836.581055
7633.190224	0.094871	0.706627	8919.972656
7633.191122	0.094896	0.706627	9005.189453
7633.191998	0.094940	0.706627	9088.357422
7633.192928	0.094940	0.706627	9176.651367
7634.129857	1.032854	0.716847	442.061493
7634.130849	1.523599	0.716847	1953.471436
7634.131912	1.510093	0.716847	3558.700195
7634.132890	1.467169	0.716847	4993.591797
7634.133757	1.429750	0.716847	6233.184570
7634.134811	1.386709	0.716847	7694.775879
7634.135841	0.533654	0.716847	8244.439453
7634.136713	0.096859	0.716847	8328.900391
7634.137617	0.094926	0.716847	8414.712891
7634.138682	0.095039	0.716847	8515.929687
7634.139630	0.094896	0.716847	8605.891602
7634.140492	0.094893	0.716847	8687.689453
7634.141516	0.094980	0.716847	8784.949219
7634.142544	0.094948	0.716847	8882.555664
7634.143436	0.094933	0.716847	8967.235352
7634.144372	0.095024	0.716847	9056.177734
7634.145423	0.094918	0.716847	9155.936523
7635.197905	1.039347	0.680842	454.194611
7635.198785	1.525159	0.680842	1796.334229
7635.199653	1.521980	0.680842	3117.413086
7635.200588	1.481202	0.680842	4502.337402
7635.201554	1.439832	0.680842	5893.214844
7635.202448	1.402419	0.680842	7146.977539
7635.203532	0.955906	0.680842	8183.179687
7635.204471	0.113738	0.680842	8289.979492
7635.205402	0.094823	0.680842	8378.259766
7635.206262	0.094882	0.680842	8459.858398
7635.207233	0.094911	0.680842	8552.016602
7635.208180	0.094816	0.680842	8641.806641
7635.209050	0.094929	0.680842	8724.395508
7635.209962	0.094830	0.680842	8810.880859
7635.210903	0.094882	0.680842	8900.164062
7635.211839	0.094904	0.680842	8988.994141
7635.212712	0.094955	0.680842	9071.889648
7636.175855	1.082446	0.742713	500.090149
7636.176728	1.526385	0.742713	1832.624512
7636.177606	1.520640	0.742713	3167.746094
7636.178585	1.478844	0.742713	4615.534180
7636.179530	1.437070	0.742713	5973.565430
7636.180447	1.399197	0.742713	7256.628906
7636.181326	1.112717	0.742713	8234.707031
7636.182362	0.121011	0.742713	8360.074219
7636.183251	0.094823	0.742713	8444.372070
7636.184124	0.094922	0.742713	8527.239258
7636.185051	0.095010	0.742713	8615.313477
7636.186054	0.094907	0.742713	8710.505859
7636.186969	0.094980	0.742713	8797.413086
7636.187831	0.094944	0.742713	8879.254883
7636.188874	0.094980	0.742713	8978.319336
7636.189751	0.094926	0.742713	9061.569336
7636.190672	0.094926	0.742713	9148.996094
7637.208020	1.057108	0.738133	466.184662
7637.208894	1.524760	0.738133	1798.824463
7637.209824	1.519567	0.738133	3212.021484
7637.210765	1.478229	0.738133	4603.034668
7637.211695	1.438209	0.738133	5940.569336
7637.212577	1.400998	0.738133	7176.250000
7637.213541	1.084065	0.738133	8221.288086
7637.214502	0.130433	0.738133	8346.634766
7637.215390	0.094863	0.738133	8430.873047
7637.216278	0.094962	0.738133	8515.199219
7637.217222	0.094929	0.738133	8604.812500
7637.218171	0.094889	0.738133	8694.862305
7637.219056	0.094882	0.738133	8778.832031
7637.219991	0.094929	0.738133	8867.590820
7637.220943	0.094918	0.738133	8957.953125
7637.221845	0.094969	0.738133	9043.615234
7637.222721	0.094900	0.738133	9126.747070
7638.217178	1.054413	0.712138	470.268127
7638.218051	1.525177	0.712138	1801.747559
7638.218914	1.520998	0.712138	3114.369141
7638.219889	1.479888	0.712138	4557.259766
7638.220821	1.438868	0.712138	5898.285156
7638.221730	1.401493	0.712138	7172.242187
7638.222644	1.121748	0.712138	8197.519531
7638.223605	0.142723	0.712138	8334.676758
7638.224531	0.094812	0.712138	8422.472656
7638.225405	0.094937	0.712138	8505.447266
7638.226358	0.094977	0.712138	8595.959961
7638.227277	0.094900	0.712138	8683.172852
7638.228207	0.094955	0.712138	8771.480469
7638.229066	0.094885	0.712138	8852.987305
7638.230031	0.095010	0.712138	8944.671875
7638.230980	0.094904	0.712138	9034.735352
7638.231849	0.094944	0.712138	9117.241211
7639.223746	1.025156	0.779109	440.817200
7639.224605	1.522430	0.779109	1748.584961
7639.225597	1.517629	0.779109	3254.073242
7639.226526	1.476914	0.779109	4626.126465
7639.227461	1.437261	0.779109	5969.965332
7639.228327	1.400749	0.779109	7183.014648
7639.229298	1.069292	0.779109	8221.296875
7639.230261	0.126486	0.779109	8343.102539
7639.231151	0.094805	0.779109	8427.478516
7639.232041	0.094874	0.779109	8511.916992
7639.232976	0.094871	0.779109	8600.621094
7639.233932	0.094874	0.779109	8691.321289
7639.234803	0.094896	0.779109	8773.975586
7639.235718	0.094904	0.779109	8860.812500
7639.236665	0.094907	0.779109	8950.689453
7639.237585	0.094856	0.779109	9037.957031
7639.238462	0.094955	0.779109	9121.232422
7640.256497	1.062257	0.674078	503.509857
7640.257396	1.528418	0.674078	1877.557617
7640.258273	1.519581	0.674078	3210.230469
7640.259189	1.480649	0.674078	4566.505371
7640.260125	1.438978	0.674078	5913.389160
7640.261064	1.399753	0.674078	7227.757812
7640.261950	1.139952	0.674078	8237.755859
7640.262880	0.149949	0.674078	8377.208008
7640.263808	0.094717	0.674078	8465.105469
7640.264732	0.094911	0.674078	8552.802734
7640.265605	0.094904	0.674078	8635.653320
7640.266559	0.094900	0.674078	8726.187500
7640.267479	0.094955	0.674078	8813.545898
7640.268387	0.094911	0.674078	8899.724609
7640.269253	0.094918	0.674078	8981.923828
7640.270232	0.094889	0.674078	9074.820312
7640.271175	0.094907	0.674078	9164.317383
7641.247219	1.094593	0.832093	523.215637
7641.248118	1.528070	0.832093	1896.950684
7641.248999	1.518889	0.832093	3235.091797
7641.249935	1.478415	0.832093	4618.888672
7641.250892	1.436942	0.832093	5994.042480
7641.251823	1.398688	0.832093	7296.220703
7641.252694	1.104423	0.832093	8258.172852
7641.253652	0.135927	0.832093	8388.390625
7641.254571	0.094805	0.832093	8475.516602
7641.255506	0.094874	0.832093	8564.223633
7641.256375	0.094933	0.832093	8646.720703
7641.257466	0.094948	0.832093	8750.308594
7641.258489	0.094827	0.832093	8847.316406
7641.259378	0.095002	0.832093	8931.773437
7641.260302	0.094988	0.832093	9019.541992
7641.261374	0.095017	0.832093	9121.400391
7641.262318	0.094944	0.832093	9211.027344
7642.288598	1.066663	0.719715	478.931549
7642.289478	1.525964	0.719715	1821.780029
7642.290344	1.520046	0.719715	3138.140137
7642.291443	1.473885	0.719715	4757.940430
7642.292374	1.433632	0.719715	6092.651367
7642.293261	1.396739	0.719715	7331.559570
7642.294249	0.914813	0.719715	8235.395508
7642.295252	0.103597	0.719715	8339.303711
7642.296146	0.094944	0.719715	8424.183594
7642.297019	0.094951	0.719715	8507.076172
7642.298019	0.094980	0.719715	8602.056641
7642.298950	0.094951	0.719715	8690.456055
7642.299870	0.094951	0.719715	8777.811523
7642.300727	0.094958	0.719715	8859.191406
7642.301747	0.094863	0.719715	8955.952148
7642.302643	0.094929	0.719715	9041.008789
7642.303516	0.094940	0.719715	9123.891602
7643.274203	1.058650	0.885662	486.978943
7643.275244	1.532270	0.885662	2082.072510
7643.276139	1.512854	0.885662	3436.076660
7643.277022	1.474519	0.885662	4738.077148
7643.278023	1.431976	0.885662	6171.485352
7643.278954	1.392136	0.885662	7467.564453
7643.279888	0.874589	0.885662	8284.430664
7643.280754	0.110845	0.885662	8380.421875
7643.281788	0.094852	0.885662	8478.499023
7643.282666	0.094889	0.885662	8561.811523
7643.283533	0.094918	0.885662	8644.105469
7643.284525	0.094955	0.885662	8738.300781
7643.285460	0.094922	0.885662	8827.052734
7643.286361	0.094900	0.885662	8912.557617
7643.287237	0.094896	0.885662	8995.686523
7643.288251	0.094878	0.885662	9091.892578
7643.289151	0.094860	0.885662	9177.266602
7644.318222	1.085189	0.710845	551.276123
7644.319129	1.530055	0.710845	1939.035889
7644.320051	1.516044	0.710845	3336.828125
7644.320921	1.477485	0.710845	4622.240234
7644.321925	1.435320	0.710845	6063.301270
7644.322851	1.395656	0.710845	7355.678223
7644.323774	0.988213	0.710845	8267.798828
7644.324631	0.124574	0.710845	8374.558594
7644.325583	0.094827	0.710845	8464.833984
7644.326528	0.094929	0.710845	8554.541992
7644.327422	0.094893	0.710845	8639.375977
7644.328340	0.094955	0.710845	8726.544922
7644.329285	0.094874	0.710845	8816.201172
7644.330194	0.094856	0.710845	8902.424805
7644.331085	0.094904	0.710845	8986.983398
7644.332011	0.094860	0.710845	9074.823242
7644.332967	0.094918	0.710845	9165.565430
7645.303286	1.081018	0.918013	510.240479
7645.304222	1.529312	0.918013	1941.676025
7645.305111	1.516604	0.918013	3289.937012
7645.306031	1.477002	0.918013	4648.778809
7645.306991	1.435770	0.918013	6027.118164
7645.307904	1.397007	0.918013	7302.585449
7645.308801	1.060133	0.918013	8253.524414
7645.309738	0.127474	0.918013	8372.967773
7645.310693	0.094878	0.918013	8463.576172
7645.311609	0.094955	0.918013	8550.554687
7645.312467	0.094944	0.918013	8632.016602
7645.313554	0.095013	0.918013	8735.295898
7645.314605	0.094937	0.918013	8835.074219
7645.315487	0.094933	0.918013	8918.804687
7645.316352	0.094966	0.918013	9000.950195
7645.317436	0.095013	0.918013	9103.944336
7645.318410	0.094893	0.918013	9196.370117
7646.347776	1.063301	0.678554	526.333923
7646.348703	1.530055	0.678554	1944.694824
7646.349628	1.515736	0.678554	3346.750488
7646.350498	1.477269	0.678554	4631.974609
7646.351461	1.435745	0.678554	6014.596680
7646.352391	1.396688	0.678554	7313.516602
7646.353321	1.005289	0.678554	8248.435547
7646.354201	0.124475	0.678554	8357.973633
7646.355173	0.094885	0.678554	8450.202148
7646.356095	0.094955	0.678554	8537.750977
7646.356956	0.094896	0.678554	8619.457031
7646.358014	0.094878	0.678554	8719.837891
7646.358911	0.094889	0.678554	8804.953125
7646.359818	0.094904	0.678554	8891.030273
7646.360682	0.094918	0.678554	8973.040039
7646.361624	0.094937	0.678554	9062.470703
7646.362543	0.094955	0.678554	9149.734375
7647.332790	1.038508	0.953076	437.212006
7647.333896	1.530795	0.953076	2130.270752
7647.334874	1.508210	0.953076	3605.300537
7647.335744	1.469850	0.953076	4884.069824
7647.336843	1.423345	0.953076	6448.325684
7647.337870	1.381066	0.953076	7866.680176
7647.338775	0.539934	0.953076	8355.320312
7647.339703	0.097698	0.953076	8445.983398
7647.340760	0.094969	0.953076	8546.366211
7647.341695	0.094969	0.953076	8635.163086
7647.342558	0.094911	0.953076	8717.071289
7647.343601	0.094911	0.953076	8816.063477
7647.344614	0.094856	0.953076	8912.152344
7647.345497	0.094893	0.953076	8995.942383
7647.346450	0.095006	0.953076	9086.483398
7647.347506	0.094915	0.953076	9186.712891
7647.348423	0.094867	0.953076	9273.706055
7648.373189	1.032609	0.682687	445.054321
7648.374064	1.524445	0.682687	1778.943359
7648.374980	1.520973	0.682687	3172.154541
7648.375935	1.479089	0.682687	4584.685059
7648.376866	1.438638	0.682687	5924.056641
7648.377750	1.401585	0.682687	7163.057617
7648.378680	1.109524	0.682687	8194.915039
7648.379630	0.144309	0.682687	8332.008789
7648.380531	0.094856	0.682687	8417.473633
7648.381407	0.094819	0.682687	8500.535156
7648.382352	0.094860	0.682687	8590.177734
7648.383296	0.094896	0.682687	8679.759766
7648.384181	0.094915	0.682687	8763.758789
7648.385065	0.094871	0.682687	8847.624023
7648.386005	0.094845	0.682687	8936.778320
7648.386960	0.094882	0.682687	9027.390625
7648.387839	0.094933	0.682687	9110.836914
7649.364933	1.037948	0.918227	448.393555
7649.365803	1.523251	0.918227	1773.621826
7649.366760	1.518571	0.918227	3226.893799
7649.367774	1.474618	0.918227	4722.156250
7649.368663	1.435866	0.918227	5998.640625
7649.369535	1.398911	0.918227	7218.491211
7649.370601	0.909525	0.918227	8188.044922
7649.371536	0.109417	0.918227	8290.349609
7649.372408	0.094819	0.918227	8373.032227
7649.373367	0.094984	0.918227	8464.122070
7649.374395	0.094955	0.918227	8561.735352
7649.375284	0.094969	0.918227	8646.163086
7649.376149	0.094962	0.918227	8728.305664
7649.377165	0.094999	0.918227	8824.824219
7649.378118	0.094874	0.918227	8915.239258
7649.378991	0.094962	0.918227	8998.141602
7649.379882	0.094940	0.918227	9082.733398
7650.398154	1.044734	0.659987	456.548706
7650.399030	1.525239	0.659987	1792.658325
7650.400010	1.518025	0.659987	3280.322754
7650.401035	1.472977	0.659987	4790.124512
7650.401926	1.434357	0.659987	6068.136230
7650.402792	1.397465	0.659987	7278.340820
7650.403873	0.844658	0.659987	8191.416504
7650.404793	0.105150	0.659987	8288.154297
7650.405666	0.094878	0.659987	8370.982422
7650.406639	0.095024	0.659987	8463.441406
7650.407663	0.095006	0.659987	8560.727539
7650.408547	0.095002	0.659987	8644.709961
7650.409403	0.094944	0.659987	8725.981445
7650.410446	0.095065	0.659987	8825.133789
7650.411384	0.094973	0.659987	8914.218750
7650.412260	0.095017	0.659987	8997.454102
7650.413195	0.095186	0.659987	9086.452148
7651.400151	1.052772	0.838241	465.325348
7651.401070	1.527100	0.838241	1868.729858
7651.401960	1.518160	0.838241	3219.892578
7651.403021	1.472578	0.838241	4782.297852
7651.404079	1.427867	0.838241	6292.981445
7651.404972	1.389935	0.838241	7534.193848
7651.405869	0.819430	0.838241	8269.222656
7651.406962	0.098741	0.838241	8377.147461
7651.407916	0.095013	0.838241	8467.790039
7651.408780	0.094926	0.838241	8549.805664
7651.409825	0.094999	0.838241	8649.079102
7651.410844	0.094966	0.838241	8745.849609
7651.411727	0.094969	0.838241	8829.708008
7651.412654	0.095028	0.838241	8917.798828
7651.413711	0.094991	0.838241	9018.205078
7651.414641	0.094969	0.838241	9106.526367
7651.415501	0.094988	0.838241	9188.215820
7652.408246	1.022010	0.728199	427.200378
7652.409150	1.521903	0.728199	1803.000732
7652.410246	1.511935	0.728199	3460.081055
7652.411188	1.470765	0.728199	4845.541992
7652.412062	1.432881	0.728199	6097.879883
7652.413097	1.390052	0.728199	7536.583984
7652.414123	0.654031	0.728199	8207.619141
7652.415013	0.099060	0.728199	8295.782227
7652.415964	0.094962	0.728199	8386.090820
7652.417024	0.095083	0.728199	8486.878906
7652.417954	0.095006	0.728199	8575.234375
7652.418814	0.094944	0.728199	8656.885742
7652.419899	0.094988	0.728199	8759.947266
7652.420893	0.094984	0.728199	8854.361328
7652.421781	0.094962	0.728199	8938.687500
7652.422759	0.095028	0.728199	9031.625000
7652.423806	0.095021	0.728199	9131.111328
7653.439932	1.027372	0.651077	437.660370
7653.440890	1.528843	0.651077	1902.291870
7653.441827	1.515978	0.651077	3322.763184
7653.442748	1.476178	0.651077	4682.323242
7653.443616	1.437876	0.651077	5930.399414
7653.444596	1.397754	0.651077	7300.198242
7653.445557	0.995859	0.651077	8257.218750
7653.446446	0.123395	0.651077	8366.916992
7653.447353	0.094911	0.651077	8453.000977
7653.448284	0.094962	0.651077	8541.411133
7653.449228	0.094977	0.651077	8631.069336
7653.450118	0.095021	0.651077	8715.637695
7653.451029	0.094984	0.651077	8802.167969
7653.451990	0.094966	0.651077	8893.429687
7653.452909	0.094969	0.651077	8980.707031
7653.453776	0.095021	0.651077	9063.089844
7653.454744	0.095002	0.651077	9155.051758
7654.418391	1.072566	0.764011	479.436951
7654.419316	1.527272	0.764011	1892.163330
7654.420181	1.518263	0.764011	3205.460937
7654.421182	1.476365	0.764011	4683.301758
7654.422117	1.435931	0.764011	6025.897461
7654.422991	1.398933	0.764011	7248.564941
7654.423910	1.068486	0.764011	8230.503906
7654.424879	0.127701	0.764011	8354.246094
7654.425800	0.094882	0.764011	8441.631836
7654.426678	0.095010	0.764011	8525.050781
7654.427617	0.094991	0.764011	8614.248047
7654.428571	0.094977	0.764011	8704.855469
7654.429496	0.094973	0.764011	8792.706055
7654.430356	0.095006	0.764011	8874.411133
7654.431322	0.094922	0.764011	8966.105469
7654.432264	0.094933	0.764011	9055.532227
7654.433131	0.094973	0.764011	9137.874023
7655.482351	1.057028	0.625304	501.031067
7655.483232	1.527455	0.625304	1846.718750
7655.484104	1.519874	0.625304	3172.049072
7655.485049	1.479511	0.625304	4570.186523
7655.486003	1.438345	0.625304	5942.367187
7655.486898	1.400376	0.625304	7195.703613
7655.487791	1.135166	0.625304	8209.407227
7655.488737	0.143049	0.625304	8344.731445
7655.489682	0.094900	0.625304	8434.412109
7655.490573	0.095035	0.625304	8519.088867
7655.491501	0.094962	0.625304	8607.213867
7655.492463	0.095017	0.625304	8698.620117
7655.493364	0.094966	0.625304	8784.184570
7655.494243	0.095006	0.625304	8867.695312
7655.495175	0.094988	0.625304	8956.223633
7655.496104	0.094980	0.625304	9044.460937
7655.497028	0.094958	0.625304	9132.202148
7656.441800	1.044672	0.804596	452.342834
7656.442685	1.524218	0.804596	1801.275391
7656.443552	1.520369	0.804596	3119.435059
7656.444528	1.479239	0.804596	4563.172852
7656.445483	1.438242	0.804596	5936.694336
7656.446378	1.400457	0.804596	7190.103027
7656.447295	1.134895	0.804596	8230.801758
7656.448239	0.142222	0.804596	8365.058594
7656.449171	0.094885	0.804596	8453.491211
7656.450042	0.094977	0.804596	8536.215820
7656.450975	0.094958	0.804596	8624.812500
7656.451899	0.095010	0.804596	8712.601562
7656.452824	0.095068	0.804596	8800.540039
7656.453699	0.095017	0.804596	8883.679687
7656.454659	0.095024	0.804596	8974.903320
7656.455592	0.094977	0.804596	9063.516602
7656.456493	0.095021	0.804596	9149.129883
7657.503226	1.097120	0.651395	527.714905
7657.504107	1.528209	0.651395	1874.067139
7657.505028	1.517512	0.651395	3271.695801
7657.505988	1.475973	0.651395	4688.629883
7657.506920	1.435822	0.651395	6026.815430
7657.507803	1.398548	0.651395	7261.733887
7657.508783	1.011167	0.651395	8252.677734
7657.509735	0.117729	0.651395	8364.755859
7657.510624	0.094922	0.651395	8449.141602
7657.511495	0.095013	0.651395	8531.898437
7657.512590	0.095043	0.651395	8635.970703
7657.513607	0.094948	0.651395	8732.532227
7657.514485	0.094991	0.651395	8815.934570
7657.515454	0.095043	0.651395	8908.031250
7657.516483	0.095028	0.651395	9005.815430
7657.517411	0.095021	0.651395	9093.995117
7657.518269	0.095061	0.651395	9175.557617
7658.486790	1.102485	0.798586	536.910339
7658.487688	1.528810	0.798586	1909.781494
7658.488564	1.518186	0.798586	3239.712402
7658.489487	1.477716	0.798586	4603.644531
7658.490485	1.434906	0.798586	6035.680664
7658.491411	1.396644	0.798586	7328.973633
7658.492283	1.071020	0.798586	8262.903320
7658.493356	0.114009	0.798586	8385.234375
7658.494253	0.094900	0.798586	8470.359375
7658.495167	0.094900	0.798586	8557.097656
7658.496033	0.094933	0.798586	8639.309570
7658.497006	0.094937	0.798586	8731.682617
7658.497904	0.094940	0.798586	8816.938477
7658.498791	0.094984	0.798586	8901.189453
7658.499760	0.094966	0.798586	8993.210937
7658.500680	0.094948	0.798586	9080.562500
7658.501604	0.094951	0.798586	9168.297852
7659.511287	1.065710	0.741940	500.883911
7659.512180	1.526968	0.741940	1864.466064
7659.513052	1.519340	0.741940	3189.330322
7659.513986	1.478170	0.741940	4569.941406
7659.514930	1.437078	0.741940	5926.542969
7659.515860	1.398790	0.741940	7227.417969
7659.516744	1.082432	0.741940	8184.287598
7659.517728	0.131572	0.741940	8313.754883
7659.518670	0.094955	0.741940	8403.202148
7659.519559	0.095028	0.741940	8487.681641
7659.520450	0.095032	0.741940	8572.354492
7659.521398	0.094966	0.741940	8662.381836
7659.522331	0.095050	0.741940	8751.063477
7659.523190	0.095043	0.741940	8832.705078
7659.524153	0.095083	0.741940	8924.269531
7659.525103	0.094958	0.741940	9014.480469
7659.525974	0.095068	0.741940	9097.285156
7660.535234	1.032418	0.673128	438.777771
7660.536229	1.526137	0.673128	1957.283691
7660.537160	1.515055	0.673128	3367.799805
7660.538089	1.474625	0.673128	4737.726562
7660.538957	1.436195	0.673128	5984.343750
7660.539974	1.394187	0.673128	7402.231934
7660.540894	0.942191	0.673128	8269.047852
7660.541769	0.116481	0.673128	8370.968750
7660.542726	0.094973	0.673128	8461.858398
7660.543673	0.095057	0.673128	8551.877930
7660.544590	0.095032	0.673128	8639.022461
7660.545460	0.095043	0.673128	8721.709961
7660.546492	0.095039	0.673128	8819.790039
7660.547386	0.095032	0.673128	8904.748047
7660.548263	0.095046	0.673128	8988.103516
7660.549138	0.095083	0.673128	9071.300781
7660.550169	0.094991	0.673128	9169.237305
7661.526516	1.089115	0.862950	516.240540
7661.527401	1.527056	0.862950	1867.684814
7661.528279	1.519105	0.862950	3201.459229
7661.529241	1.478178	0.862950	4623.465820
7661.530225	1.434965	0.862950	6035.470703
7661.531155	1.396520	0.862950	7334.234375
7661.532027	1.060144	0.862950	8258.679687
7661.533086	0.115862	0.862950	8381.376953
7661.533964	0.094980	0.862950	8464.769531
7661.534882	0.094991	0.862950	8551.971680
7661.535744	0.094991	0.862950	8633.854492
7661.536697	0.094991	0.862950	8724.380859
7661.537652	0.094980	0.862950	8815.086914
7661.538545	0.094977	0.862950	8899.901367
7661.539510	0.095006	0.862950	8991.582031
7661.540434	0.094926	0.862950	9079.292969
7661.541352	0.094966	0.862950	9166.471680
7662.561216	1.035952	0.621900	443.387482
7662.562240	1.525895	0.621900	2005.903687
7662.563243	1.511049	0.621900	3521.485352
7662.564136	1.471560	0.621900	4835.588379
7662.565002	1.433313	0.621900	6076.837402
7662.566096	1.389785	0.621900	7597.262207
7662.567012	0.758408	0.621900	8291.963867
7662.567916	0.101550	0.621900	8383.765625
7662.568799	0.095002	0.621900	8467.652344
7662.569842	0.095035	0.621900	8566.774414
7662.570725	0.095006	0.621900	8650.665039
7662.571599	0.095032	0.621900	8733.722656
7662.572560	0.095010	0.621900	8825.027344
7662.573509	0.095017	0.621900	8915.198242
7662.574429	0.095024	0.621900	9002.621094
7662.575297	0.094991	0.621900	9085.073242
7662.576338	0.095043	0.621900	9184.012695
7663.565876	1.140124	0.724545	609.966553
7663.566791	1.531677	0.724545	2011.451172
7663.567669	1.515648	0.724545	3342.190186
7663.568623	1.474146	0.724545	4748.524902
7663.569658	1.429629	0.724545	6228.190918
7663.570553	1.392206	0.724545	7474.214844
7663.571425	0.933087	0.724545	8287.867187
7663.572499	0.102920	0.724545	8398.403320
7663.573448	0.094849	0.724545	8488.415039
7663.574331	0.094958	0.724545	8572.263672
7663.575274	0.095028	0.724545	8661.875000
7663.576296	0.094991	0.724545	8758.956055
7663.577177	0.095002	0.724545	8842.653320
7663.578037	0.094991	0.724545	8924.345703
7663.579083	0.095032	0.724545	9023.749023
7663.580028	0.094951	0.724545	9113.477539
7663.580893	0.094969	0.724545	9195.625977
7664.567240	1.042987	0.678477	452.656403
7664.568114	1.524188	0.678477	1784.796875
7664.569114	1.517098	0.678477	3301.895264
7664.570061	1.475120	0.678477	4698.833496
7664.570983	1.435968	0.678477	6022.795898
7664.571853	1.398739	0.678477	7239.699219
7664.572893	0.946007	0.678477	8223.546875
7664.573774	0.117557	0.678477	8327.115234
7664.574637	0.094863	0.678477	8408.982422
7664.575582	0.095021	0.678477	8498.777344
7664.576547	0.094980	0.678477	8590.433594
7664.577457	0.095006	0.678477	8676.888672
7664.578332	0.094977	0.678477	8759.993164
7664.579388	0.095094	0.678477	8860.412109
7664.580280	0.094926	0.678477	8945.085937
7664.581152	0.094988	0.678477	9027.915039
7664.582009	0.095061	0.678477	9109.382812
7665.614299	1.069391	0.589673	478.017731
7665.615179	1.526338	0.589673	1821.195068
7665.616145	1.517725	0.589673	3287.316895
7665.617084	1.476544	0.589673	4673.791992
7665.618007	1.436993	0.589673	6000.136719
7665.618870	1.400116	0.589673	7208.436523
7665.619811	1.064963	0.589673	8210.567383
7665.620754	0.126705	0.589673	8330.050781
7665.621667	0.094845	0.589673	8416.644531
7665.622528	0.095021	0.589673	8498.457031
7665.623496	0.094988	0.589673	8590.405273
7665.624448	0.095024	0.589673	8680.868164
7665.625343	0.095013	0.589673	8765.905273
7665.626251	0.094977	0.589673	8852.144531
7665.627201	0.094966	0.589673	8942.362305
7665.628121	0.094937	0.589673	9029.704102
7665.628979	0.094969	0.589673	9111.187500
7666.580474	1.059166	0.786025	504.163177
7666.581353	1.526909	0.786025	1846.316406
7666.582224	1.519039	0.786025	3169.399658
7666.583166	1.478745	0.786025	4562.377441
7666.584109	1.437155	0.786025	5917.614258
7666.585038	1.399047	0.786025	7217.328613
7666.585905	1.109963	0.786025	8179.666992
7666.586878	0.139907	0.786025	8315.796875
7666.587818	0.094915	0.786025	8405.016602
7666.588711	0.095006	0.786025	8489.857422
7666.589630	0.094958	0.786025	8577.124023
7666.590578	0.095024	0.786025	8667.207031
7666.591480	0.094958	0.786025	8752.859375
7666.592353	0.095032	0.786025	8835.822266
7666.593267	0.094969	0.786025	8922.624023
7666.594214	0.095043	0.786025	9012.629883
7666.595138	0.095021	0.786025	9100.428711
7667.641789	1.029203	0.566107	435.352783
7667.642736	1.527759	0.566107	1882.140259
7667.643669	1.516652	0.566107	3297.176270
7667.644586	1.476812	0.566107	4651.412598
7667.645467	1.438253	0.566107	5918.513672
7667.646436	1.398362	0.566107	7273.526367
7667.647388	1.031931	0.566107	8255.924805
7667.648279	0.125815	0.566107	8368.026367
7667.649195	0.094918	0.566107	8454.971680
7667.650117	0.094933	0.566107	8542.500000
7667.651069	0.094984	0.566107	8632.924805
7667.651945	0.095021	0.566107	8716.163086
7667.652853	0.094944	0.566107	8802.372070
7667.653800	0.094889	0.566107	8892.231445
7667.654729	0.094999	0.566107	8980.485352
7667.655604	0.094940	0.566107	9063.557617
7667.656573	0.095039	0.566107	9155.650391
7668.622808	1.054116	0.750306	466.973450
7668.623675	1.524287	0.750306	1788.530273
7668.624715	1.514678	0.750306	3363.794922
7668.625753	1.469480	0.750306	4889.115234
7668.626635	1.431280	0.750306	6151.504883
7668.627573	1.392257	0.750306	7457.441895
7668.628649	0.694138	0.750306	8204.334961
7668.629587	0.098397	0.750306	8296.631836
7668.630445	0.094991	0.750306	8378.134766
7668.631484	0.095017	0.750306	8476.857422
7668.632514	0.095017	0.750306	8574.724609
7668.633403	0.095006	0.750306	8659.184570
7668.634361	0.095065	0.750306	8750.256836
7668.635415	0.095105	0.750306	8850.497070
7668.636340	0.095090	0.750306	8938.456055
7668.637203	0.095068	0.750306	9020.500000
7668.638259	0.095116	0.750306	9120.942383
7669.647323	1.070955	0.679666	489.426239
7669.648212	1.526715	0.679666	1846.676025
7669.649076	1.519761	0.679666	3159.749268
7669.650052	1.478357	0.679666	4602.625488
7669.651010	1.437246	0.679666	5979.507324
7669.651904	1.399603	0.679666	7230.752930
7669.652819	1.101544	0.679666	8238.666016
7669.653786	0.137468	0.679666	8371.597656
7669.654704	0.094878	0.679666	8458.695312
7669.655562	0.095013	0.679666	8540.216797
7669.656506	0.094940	0.679666	8629.839844
7669.657459	0.094918	0.679666	8720.296875
7669.658375	0.094977	0.679666	8807.295898
7669.659247	0.094951	0.679666	8890.093750
7669.660208	0.094929	0.679666	8981.320312
7669.661157	0.094933	0.679666	9071.411133
7669.662049	0.094991	0.679666	9156.143555
7670.669764	1.036322	0.637699	445.618469
7670.670711	1.523716	0.637699	1888.577393
7670.671790	1.510986	0.637699	3518.931641
7670.672720	1.469718	0.637699	4885.769531
7670.673581	1.432035	0.637699	6118.751465
7670.674609	1.389800	0.637699	7547.465820
7670.675643	0.637921	0.637699	8207.076172
7670.676529	0.098690	0.637699	8294.515625
7670.677482	0.094980	0.637699	8385.032227
7670.678534	0.095002	0.637699	8484.974609
7670.679459	0.095017	0.637699	8572.865234
7670.680321	0.095010	0.637699	8654.763672
7670.681404	0.094955	0.637699	8757.599609
7670.682402	0.094918	0.637699	8852.328125
7670.683290	0.094900	0.637699	8936.599609
7670.684235	0.095039	0.637699	9026.411133
7670.685264	0.095061	0.637699	9124.228516
7671.663086	1.060133	0.778605	495.082153
7671.663994	1.527876	0.778605	1882.393555
7671.664898	1.517201	0.778605	3253.943359
7671.665791	1.478364	0.778605	4574.122559
7671.666726	1.437667	0.778605	5918.341309
7671.667680	1.398116	0.778605	7252.144531
7671.668604	1.068336	0.778605	8239.287109
7671.669468	0.140936	0.778605	8361.055664
7671.670408	0.094999	0.778605	8450.354492
7671.671367	0.094995	0.778605	8541.455078
7671.672253	0.094984	0.778605	8625.611328
7671.673165	0.095006	0.778605	8712.256836
7671.674099	0.095050	0.778605	8801.033203
7671.675031	0.094977	0.778605	8889.551758
7671.675917	0.095010	0.778605	8973.730469
7671.676839	0.094966	0.778605	9061.289062
7671.677778	0.094951	0.778605	9150.448242
7672.701459	1.110974	0.544459	562.152893
7672.702410	1.532084	0.544459	2019.164551
7672.703285	1.515516	0.544459	3345.241455
7672.704316	1.470308	0.544459	4861.128906
7672.705358	1.426058	0.544459	6347.082031
7672.706257	1.388401	0.544459	7595.254395
7672.707202	0.737314	0.544459	8292.016602
7672.708273	0.097137	0.544459	8396.050781
7672.709211	0.094966	0.544459	8485.128906
7672.710075	0.095002	0.544459	8567.210937
7672.711135	0.095094	0.544459	8668.010742
7672.712145	0.094933	0.544459	8763.892578
7672.713036	0.094995	0.544459	8848.533203
7672.714000	0.095021	0.544459	8940.132812
7672.715046	0.095028	0.544459	9039.532227
7672.715955	0.094999	0.544459	9125.885742
7672.716812	0.094973	0.544459	9207.277344
7673.695234	1.087042	0.754802	536.998840
7673.696111	1.528125	0.754802	1877.164551
7673.697036	1.516315	0.754802	3279.755615
7673.698105	1.469934	0.754802	4851.115234
7673.699064	1.429032	0.754802	6221.556641
7673.699951	1.392220	0.754802	7456.456055
7673.700909	0.831332	0.754802	8252.872070
7673.701946	0.099481	0.754802	8356.034180
7673.702832	0.094889	0.754802	8440.105469
7673.703691	0.094991	0.754802	8521.703125
7673.704739	0.094984	0.754802	8621.246094
7673.705680	0.094944	0.754802	8710.587891
7673.706551	0.094988	0.754802	8793.322266
7673.707453	0.095043	0.754802	8879.050781
7673.708530	0.095013	0.754802	8981.379883
7673.709407	0.094980	0.754802	9064.677734
7673.710276	0.094999	0.754802	9147.231445
7674.716089	1.026449	0.571389	433.161469
7674.717042	1.523057	0.571389	1884.634521
7674.718099	1.511558	0.571389	3482.351074
7674.719035	1.470531	0.571389	4858.768066
7674.719906	1.432288	0.571389	6106.290527
7674.720960	1.389177	0.571389	7570.483398
7674.721974	0.641550	0.571389	8221.015625
7674.722864	0.098745	0.571389	8308.898437
7674.723835	0.095002	0.571389	8401.145508
7674.724865	0.094969	0.571389	8498.963867
7674.725780	0.094937	0.571389	8585.831055
7674.726640	0.095028	0.571389	8667.555664
7674.727710	0.095105	0.571389	8769.318359
7674.728711	0.094995	0.571389	8864.408203
7674.729588	0.094962	0.571389	8947.690430
7674.730579	0.094984	0.571389	9041.819336
7674.731632	0.094958	0.571389	9141.810547
7675.736049	1.101292	0.617722	526.417358
7675.736991	1.530337	0.617722	1967.994629
7675.737914	1.515198	0.617722	3366.522217
7675.738782	1.476339	0.617722	4647.984375
7675.739754	1.435627	0.617722	6043.414062
7675.740703	1.396168	0.617722	7368.377930
7675.741606	1.016616	0.617722	8286.382812
7675.742534	0.128525	0.617722	8405.654297
7675.743473	0.094849	0.617722	8494.716797
7675.744391	0.094995	0.617722	8581.921875
7675.745279	0.094995	0.617722	8666.277344
7675.746187	0.094995	0.617722	8752.533203
7675.747146	0.094966	0.617722	8843.605469
7675.748064	0.094929	0.617722	8930.750000
7675.748939	0.095054	0.617722	9013.921875
7675.749904	0.094969	0.617722	9105.567383
7675.750826	0.095010	0.617722	9193.166016
7676.728759	1.029177	0.643491	433.283661
7676.729730	1.527400	0.643491	1916.389038
7676.730664	1.516121	0.643491	3332.445801
7676.731549	1.477291	0.643491	4639.848633
7676.732460	1.438623	0.643491	5950.434082
7676.733399	1.398684	0.643491	7263.798340
7676.734349	1.037520	0.643491	8249.442383
7676.735219	0.133422	0.643491	8365.519531
7676.736128	0.094867	0.643491	8451.753906
7676.737070	0.094969	0.643491	8541.214844
7676.737989	0.094988	0.643491	8628.508789
7676.738869	0.095068	0.643491	8712.168945
7676.739836	0.095032	0.643491	8804.064453
7676.740789	0.094977	0.643491	8894.577148
7676.741673	0.095076	0.643491	8978.624023
7676.742554	0.095035	0.643491	9062.350586
7676.743498	0.094988	0.643491	9152.019531
7677.774365	1.118833	0.552290	568.367187
7677.775302	1.531897	0.552290	2003.754639
7677.776186	1.515626	0.552290	3343.568359
7677.777136	1.473933	0.552290	4743.804687
7677.778185	1.428981	0.552290	6242.805664
7677.779081	1.391539	0.552290	7489.625000
7677.779953	0.921537	0.552290	8293.205078
7677.780997	0.103480	0.552290	8401.238281
7677.781958	0.094944	0.552290	8492.479492
7677.782836	0.095021	0.552290	8575.907227
7677.783724	0.095068	0.552290	8660.328125
7677.784801	0.095039	0.552290	8762.685547
7677.785679	0.095002	0.552290	8846.097656
7677.786537	0.095002	0.552290	8927.609375
7677.787559	0.095017	0.552290	9024.716797
7677.788520	0.094969	0.552290	9115.982422
7677.789384	0.095039	0.552290	9198.095703
7678.747670	1.113289	0.689680	561.097473
7678.748608	1.531091	0.689680	1997.261230
7678.749484	1.515842	0.689680	3325.139160
7678.750441	1.474497	0.689680	4736.232910
7678.751477	1.429585	0.689680	6217.283203
7678.752376	1.392217	0.689680	7468.886230
7678.753261	0.932406	0.689680	8294.065430
7678.754227	0.116038	0.689680	8406.158203
7678.755188	0.094915	0.689680	8497.371094
7678.756104	0.094999	0.689680	8584.389648
7678.756964	0.095006	0.689680	8666.094727
7678.757984	0.095035	0.689680	8763.031250
7678.758878	0.095021	0.689680	8847.979492
7678.759752	0.094988	0.689680	8930.999023
7678.760630	0.094991	0.689680	9014.401367
7678.761674	0.095054	0.689680	9113.637695
7678.762559	0.094944	0.689680	9197.663086
7679.807990	1.090181	0.512825	525.467041
7679.808877	1.528872	0.512825	1881.576538
7679.809811	1.517062	0.512825	3298.512207
7679.810887	1.469996	0.512825	4880.228516
7679.811836	1.429515	0.512825	6236.838867
7679.812702	1.392667	0.512825	7442.888672
7679.813790	0.691014	0.512825	8194.711914
7679.814782	0.097372	0.512825	8291.304687
7679.815665	0.095065	0.512825	8375.247070
7679.816649	0.095079	0.512825	8468.804687
7679.817685	0.095105	0.512825	8567.333008
7679.818598	0.095021	0.512825	8654.086914
7679.819457	0.094999	0.512825	8735.690430
7679.820522	0.094999	0.512825	8836.864258
7679.821516	0.094991	0.512825	8931.286133
7679.822391	0.095024	0.512825	9014.432617
7679.823363	0.095061	0.512825	9106.832031
7680.773579	1.047451	0.718257	461.925964
7680.774507	1.527217	0.718257	1879.183105
7680.775380	1.518384	0.718257	3204.731934
7680.776363	1.476859	0.718257	4656.484375
7680.777324	1.435459	0.718257	6035.960449
7680.778216	1.397834	0.718257	7282.828613
7680.779130	1.067944	0.718257	8258.929687
7680.780052	0.130994	0.718257	8379.706055
7680.780974	0.094885	0.718257	8467.190430
7680.781862	0.094995	0.718257	8551.545898
7680.782766	0.095017	0.718257	8637.441406
7680.783712	0.094962	0.718257	8727.275391
7680.784632	0.094951	0.718257	8814.630859
7680.785509	0.095017	0.718257	8897.960937
7680.786551	0.095024	0.718257	8996.976562
7680.787591	0.095094	0.718257	9095.874023
7680.788507	0.095002	0.718257	9182.896484
7681.833520	1.111241	0.496333	603.404114
7681.834546	1.533809	0.496333	2177.091797
7681.835433	1.511001	0.496333	3517.349609
7681.836293	1.471743	0.496333	4783.048828
7681.837360	1.427421	0.496333	6306.106445
7681.838295	1.388474	0.496333	7604.329590
7681.839171	0.804525	0.496333	8309.093750
7681.840113	0.105406	0.496333	8408.386719
7681.841151	0.094995	0.496333	8506.991211
7681.842045	0.095013	0.496333	8591.933594
7681.842906	0.094977	0.496333	8673.708984
7681.843967	0.095072	0.496333	8774.580078
7681.844920	0.095021	0.496333	8865.134766
7681.845795	0.095006	0.496333	8948.264648
7681.846717	0.094991	0.496333	9035.846680
7681.847766	0.094962	0.496333	9135.461914
7681.848643	0.094977	0.496333	9218.756836
7682.802746	1.134825	0.741811	627.558411
7682.803819	1.532406	0.741811	2271.830078
7682.804777	1.504633	0.741811	3713.268066
7682.805652	1.465946	0.741811	4995.970703
7682.806683	1.422202	0.741811	6462.261230
7682.807718	1.379597	0.741811	7890.144531
7682.808619	0.468918	0.741811	8312.639648
7682.809565	0.096705	0.741811	8404.123047
7682.810628	0.095002	0.741811	8505.110352
7682.811569	0.094973	0.741811	8594.480469
7682.812432	0.095050	0.741811	8676.508789
7682.813490	0.095076	0.741811	8777.098633
7682.814481	0.095024	0.741811	8871.267578
7682.815369	0.095046	0.741811	8955.668945
7682.816332	0.095090	0.741811	9047.241211
7682.817380	0.095043	0.741811	9146.845703
7682.818291	0.095057	0.741811	9233.443359
7683.857866	1.053776	0.476139	458.392426
7683.858744	1.525657	0.476139	1797.919067
7683.859730	1.517120	0.476139	3293.799805
7683.860780	1.471999	0.476139	4839.399414
7683.861685	1.432302	0.476139	6135.632812
7683.862564	1.394220	0.476139	7361.152344
7683.863681	0.725021	0.476139	8171.000488
7683.864638	0.098815	0.476139	8265.566406
7683.865504	0.094988	0.476139	8347.826172
7683.866541	0.095090	0.476139	8446.434570
7683.867566	0.094973	0.476139	8543.782227
7683.868451	0.095076	0.476139	8627.923828
7683.869373	0.095035	0.476139	8715.546875
7683.870436	0.095032	0.476139	8816.565430
7683.871369	0.094966	0.476139	8905.168945
7683.872225	0.094958	0.476139	8986.453125
7683.873244	0.095043	0.476139	9083.301758
7684.831177	1.032894	0.745573	449.308990
7684.832041	1.522969	0.745573	1765.153931
7684.833079	1.515645	0.745573	3338.393066
7684.834115	1.470718	0.745573	4862.056641
7684.835001	1.432090	0.745573	6130.888184
7684.835921	1.393231	0.745573	7412.661133
7684.837004	0.725240	0.745573	8198.096680
7684.837930	0.099327	0.745573	8290.074219
7684.838795	0.095024	0.745573	8372.270508
7684.839814	0.095145	0.745573	8469.223633
7684.840843	0.094980	0.745573	8566.958984
7684.841733	0.095050	0.745573	8651.553711
7684.842677	0.095127	0.745573	8741.353516
7684.843726	0.095105	0.745573	8841.118164
7684.844658	0.095035	0.745573	8929.691406
7684.845525	0.094966	0.745573	9012.026367
7684.846592	0.094991	0.745573	9113.381836
7685.884866	1.033411	0.447675	444.366547
7685.885734	1.523936	0.447675	1767.142700
7685.886759	1.516183	0.447675	3321.230225
7685.887732	1.473801	0.447675	4755.238770
7685.888653	1.434287	0.447675	6076.217285
7685.889526	1.397479	0.447675	7296.216797
7685.890596	0.861262	0.447675	8217.767578
7685.891505	0.107666	0.447675	8315.635742
7685.892383	0.094885	0.447675	8398.945312
7685.893265	0.094929	0.447675	8482.672852
7685.894295	0.094951	0.447675	8580.472656
7685.895171	0.094958	0.447675	8663.656250
7685.896045	0.094955	0.447675	8746.646484
7685.897033	0.094958	0.447675	8840.465820
7685.897962	0.094948	0.447675	8928.671875
7685.898882	0.094915	0.447675	9015.993164
7685.899742	0.094962	0.447675	9097.660156
7686.858739	1.069384	0.718756	509.026550
7686.859619	1.527184	0.718756	1852.948242
7686.860567	1.516816	0.718756	3290.890137
7686.861496	1.475698	0.718756	4661.813965
7686.862418	1.436437	0.718756	5986.208496
7686.863306	1.398995	0.718756	7228.516602
7686.864249	1.018433	0.718756	8188.898437
7686.865216	0.121128	0.718756	8306.029297
7686.866138	0.094911	0.718756	8393.537109
7686.867004	0.095013	0.718756	8475.818359
7686.867971	0.094999	0.718756	8567.682617
7686.868913	0.094944	0.718756	8657.120117
7686.869785	0.094988	0.718756	8739.949219
7686.870700	0.094962	0.718756	8826.839844
7686.871638	0.095006	0.718756	8915.956055
7686.872567	0.094948	0.718756	9004.162109
7686.873454	0.094980	0.718756	9088.410156
7687.910417	1.099519	0.460896	560.754761
7687.911297	1.529927	0.460896	1907.090210
7687.912181	1.516945	0.460896	3248.069336
7687.913278	1.470502	0.460896	4861.209961
7687.914234	1.429552	0.460896	6227.861816
7687.915097	1.393583	0.460896	7430.523437
7687.916151	0.748546	0.460896	8219.491211
7687.917181	0.097998	0.460896	8320.429687
7687.918056	0.094962	0.460896	8403.521484
7687.918968	0.095043	0.460896	8490.200195
7687.920043	0.094991	0.460896	8592.316406
7687.920975	0.094969	0.460896	8680.828125
7687.921854	0.095050	0.460896	8764.376953
7687.922791	0.095061	0.460896	8853.449219
7687.923824	0.094999	0.460896	8951.583008
7687.924716	0.094984	0.460896	9036.308594
7687.925582	0.095057	0.460896	9118.627930
7688.884203	1.099296	0.727422	507.874573
7688.885160	1.529901	0.727422	1971.989990
7688.886081	1.514700	0.727422	3367.028320
7688.886951	1.475896	0.727422	4651.057617
7688.887931	1.434723	0.727422	6057.085937
7688.888884	1.395491	0.727422	7386.988770
7688.889782	1.002155	0.727422	8286.923828
7688.890703	0.126434	0.727422	8403.370117
7688.891628	0.094904	0.727422	8491.156250
7688.892564	0.094991	0.727422	8580.068359
7688.893452	0.095017	0.727422	8664.443359
7688.894361	0.095021	0.727422	8750.817383
7688.895315	0.095068	0.727422	8841.512695
7688.896238	0.095013	0.727422	8929.209961
7688.897103	0.095017	0.727422	9011.399414
7688.898075	0.095010	0.727422	9103.749023
7688.899023	0.095024	0.727422	9193.832031
7689.939002	1.117456	0.417901	616.835754
7689.940061	1.533402	0.417901	2240.708496
7689.940968	1.508364	0.417901	3608.794922
7689.941830	1.468623	0.417901	4874.748047
7689.942898	1.423865	0.417901	6395.435547
7689.943897	1.382758	0.417901	7776.810547
7689.944794	0.587520	0.417901	8303.815430
7689.945780	0.097712	0.417901	8400.160156
7689.946830	0.094966	0.417901	8499.874023
7689.947731	0.094991	0.417901	8585.460937
7689.948598	0.095006	0.417901	8667.831055
7689.949636	0.095050	0.417901	8766.493164
7689.950612	0.094969	0.417901	8859.183594
7689.951489	0.095021	0.417901	8942.516602
7689.952350	0.095024	0.417901	9024.333008
7689.953453	0.095039	0.417901	9129.161133
7689.954346	0.094984	0.417901	9213.982422
7690.908626	1.045338	0.750109	459.948792
7690.909498	1.524045	0.750109	1788.916260
7690.910469	1.516322	0.750109	3261.264893
7690.911372	1.476863	0.750109	4594.872070
7690.912295	1.437748	0.750109	5921.913086
7690.913165	1.400193	0.750109	7140.081055
7690.914169	1.051864	0.750109	8196.152344
7690.915105	0.126031	0.750109	8314.118164
7690.915983	0.094962	0.750109	8397.495117
7690.916916	0.094969	0.750109	8486.101562
7690.917858	0.095032	0.750109	8575.621094
7690.918779	0.095028	0.750109	8663.141602
7690.919641	0.095028	0.750109	8745.055664
7690.920578	0.095002	0.750109	8834.073242
7690.921523	0.095057	0.750109	8923.902344
7690.922453	0.094977	0.750109	9012.230469
7690.923335	0.095039	0.750109	9096.054687
7691.966519	1.145680	0.403549	622.104187
7691.967440	1.532622	0.403549	2033.648926
7691.968368	1.513495	0.403549	3438.172119
7691.969237	1.473640	0.403549	4718.765625
7691.970282	1.430237	0.403549	6213.363281
7691.971162	1.393590	0.403549	7439.722656
7691.972044	0.973477	0.403549	8298.329102
7691.973050	0.117759	0.403549	8416.794922
7691.973975	0.094900	0.403549	8504.577148
7691.974877	0.094973	0.403549	8590.243164
7691.975759	0.095028	0.403549	8674.057617
7691.976780	0.095046	0.403549	8771.099609
7691.977674	0.094999	0.403549	8856.028320
7691.978548	0.095046	0.403549	8939.098633
7691.979473	0.095046	0.403549	9027.016602
7691.980459	0.095002	0.403549	9120.689453
7691.981378	0.095079	0.403549	9208.067383
7692.935656	1.056101	0.711808	481.582092
7692.936551	1.526206	0.711808	1847.536621
7692.937425	1.518175	0.711808	3174.421631
7692.938393	1.476844	0.711808	4604.006836
7692.939341	1.436386	0.711808	5965.700195
7692.940230	1.399149	0.711808	7209.543945
7692.941155	1.088657	0.711808	8216.551758
7692.942123	0.129873	0.711808	8342.268555
7692.943031	0.094900	0.711808	8428.437500
7692.943921	0.094999	0.711808	8512.986328
7692.944850	0.094955	0.711808	8601.199219
7692.945800	0.094988	0.711808	8691.437500
7692.946717	0.094984	0.711808	8778.538086
7692.947576	0.094973	0.711808	8860.120117
7692.948530	0.094980	0.711808	8950.731445
7692.949478	0.094918	0.711808	9040.713867
7692.950372	0.095046	0.711808	9125.685547
7693.990861	1.041511	0.397083	459.306427
7693.991730	1.525382	0.397083	1784.863403
7693.992686	1.518420	0.397083	3236.473389
7693.993651	1.476354	0.397083	4661.154785
7693.994560	1.437078	0.397083	5967.458496
7693.995448	1.399988	0.397083	7210.647461
7693.996383	1.067637	0.397083	8208.887695
7693.997340	0.125640	0.397083	8329.125000
7693.998260	0.094915	0.397083	8416.446289
7693.999123	0.095083	0.397083	8498.502930
7694.000157	0.095043	0.397083	8596.777344
7694.001044	0.094984	0.397083	8681.028320
7694.001958	0.095057	0.397083	8767.911133
7694.002815	0.095024	0.397083	8849.346680
7694.003772	0.095065	0.397083	8940.323242
7694.004685	0.095098	0.397083	9027.147461
7694.005568	0.095017	0.397083	9111.047852
7694.965176	1.026295	0.689608	433.096558
7694.966177	1.525499	0.689608	1960.121338
7694.967110	1.513876	0.689608	3372.567383
7694.968034	1.473823	0.689608	4734.379883
7694.968910	1.435097	0.689608	5991.524414
7694.969950	1.393085	0.689608	7440.332520
7694.970846	0.939888	0.689608	8282.471680
7694.971720	0.117356	0.689608	8385.041016
7694.972719	0.094995	0.689608	8479.941406
7694.973657	0.094984	0.689608	8569.036133
7694.974577	0.095035	0.689608	8656.468750
7694.975434	0.095002	0.689608	8737.885742
7694.976452	0.095028	0.689608	8834.624023
7694.977351	0.094958	0.689608	8919.992187
7694.978222	0.095028	0.689608	9002.761719
7694.979132	0.094980	0.689608	9089.194336
7694.980128	0.094878	0.689608	9183.692383
7696.009235	1.109161	0.448726	563.453979
7696.010167	1.532062	0.448726	1991.335449
7696.011032	1.516469	0.448726	3303.080566
7696.012100	1.470297	0.448726	4873.357422
7696.013112	1.426857	0.448726	6317.336426
7696.014002	1.389935	0.448726	7554.378906
7696.014973	0.747803	0.448726	8280.495117
7696.016012	0.098317	0.448726	8382.646484
7696.016932	0.095024	0.448726	8470.069336
7696.017794	0.095017	0.448726	8551.973633
7696.018861	0.094988	0.448726	8653.325195
7696.019869	0.094951	0.448726	8749.036133
7696.020747	0.095035	0.448726	8832.477539
7696.021727	0.095046	0.448726	8925.623047
7696.022769	0.095002	0.448726	9024.615234
7696.023661	0.094980	0.448726	9109.337891
7696.024533	0.095061	0.448726	9192.231445
7697.000409	1.049736	0.566736	466.082886
7697.001273	1.524811	0.566736	1783.519409
7697.002286	1.515103	0.566736	3318.318359
7697.003272	1.472827	0.566736	4770.525879
7697.004152	1.434752	0.566736	6033.107910
7697.005030	1.396941	0.566736	7259.622070
7697.006153	0.815343	0.566736	8175.251953
7697.007039	0.104271	0.566736	8267.636719
7697.007914	0.094856	0.566736	8350.635742
7697.008785	0.095006	0.566736	8433.385742
7697.009821	0.095021	0.566736	8531.827148
7697.010702	0.095017	0.566736	8615.537109
7697.011568	0.094973	0.566736	8697.784180
7697.012566	0.094984	0.566736	8792.578125
7697.013483	0.094977	0.566736	8879.671875
7697.014383	0.094951	0.566736	8965.127930
7697.015259	0.095013	0.566736	9048.359375
7698.024426	1.090166	0.481577	502.566528
7698.025333	1.528641	0.481577	1889.044189
7698.026224	1.518307	0.481577	3241.855469
7698.027139	1.478166	0.481577	4594.377930
7698.028099	1.437015	0.481577	5973.912598
7698.029029	1.398329	0.481577	7274.358398
7698.029899	1.109030	0.481577	8239.213867
7698.030874	0.133055	0.481577	8368.943359
7698.031823	0.094958	0.481577	8459.058594
7698.032706	0.094958	0.481577	8542.907227
7698.033565	0.094999	0.481577	8624.510742
7698.034526	0.094951	0.481577	8715.758789
7698.035442	0.095006	0.481577	8802.784180
7698.036339	0.095024	0.481577	8888.021484
7698.037249	0.094958	0.481577	8974.433594
7698.038210	0.094977	0.481577	9065.706055
7698.039133	0.094940	0.481577	9153.335937
7699.040701	1.030433	0.479905	435.873322
7699.041753	1.529513	0.479905	2044.921021
7699.042772	1.509023	0.479905	3582.615723
7699.043658	1.469864	0.479905	4884.915527
7699.044625	1.429050	0.479905	6266.807129
7699.045684	1.384709	0.479905	7733.214355
7699.046613	0.612100	0.479905	8301.854492
7699.047474	0.098782	0.479905	8386.905273
7699.048516	0.095068	0.479905	8485.966797
7699.049526	0.095039	0.479905	8581.956055
7699.050409	0.095046	0.479905	8665.881836
7699.051359	0.095101	0.479905	8756.228516
7699.052411	0.095120	0.479905	8856.293945
7699.053330	0.095072	0.479905	8943.665039
7699.054200	0.095050	0.479905	9026.358398
7699.055259	0.095120	0.479905	9127.089844
7699.056250	0.094958	0.479905	9221.193359
7700.039189	1.106169	0.554123	560.827942
7700.040076	1.529399	0.554123	1917.405273
7700.040943	1.518021	0.554123	3233.529785
7700.041978	1.472827	0.554123	4757.905762
7700.042957	1.431138	0.554123	6158.989258
7700.043868	1.393337	0.554123	7428.319336
7700.044749	0.971071	0.554123	8283.832031
7700.045851	0.103960	0.554123	8398.395508
7700.046738	0.094977	0.554123	8482.639648
7700.047614	0.095083	0.554123	8565.932617
7700.048491	0.094999	0.554123	8649.246094
7700.049528	0.095021	0.554123	8747.782227
7700.050408	0.095006	0.554123	8831.387695
7700.051272	0.094988	0.554123	8913.457031
7700.052249	0.095057	0.554123	9006.328125
7700.053175	0.095021	0.554123	9094.317383
7700.054086	0.095054	0.554123	9180.911133
7701.077451	1.052856	0.436017	461.151123
7701.078322	1.525023	0.436017	1789.446289
7701.079298	1.517256	0.436017	3270.288086
7701.080230	1.476324	0.436017	4646.222656
7701.081152	1.436920	0.436017	5971.062988
7701.082030	1.399816	0.436017	7200.101074
7701.083033	1.026394	0.436017	8229.574219
7701.083957	0.120088	0.436017	8340.535156
7701.084846	0.094882	0.436017	8424.884766
7701.085830	0.094940	0.436017	8518.305664
7701.086723	0.094969	0.436017	8603.113281
7701.087637	0.094988	0.436017	8689.931641
7701.088497	0.094958	0.436017	8771.595703
7701.089450	0.094937	0.436017	8862.070312
7701.090378	0.094900	0.436017	8950.137695
7701.091292	0.094944	0.436017	9036.916016
7701.092162	0.094962	0.436017	9119.533203
7702.067131	1.029533	0.577379	437.551331
7702.068088	1.523119	0.577379	1895.176025
7702.069129	1.511514	0.577379	3468.661621
7702.070026	1.471959	0.577379	4789.008789
7702.070905	1.434360	0.577379	6049.811523
7702.071863	1.395117	0.577379	7386.333984
7702.072830	0.899941	0.577379	8256.577148
7702.073753	0.107933	0.577379	8356.199219
7702.074615	0.094940	0.577379	8438.038086
7702.075664	0.094973	0.577379	8537.665039
7702.076555	0.094966	0.577379	8622.279297
7702.077425	0.095043	0.577379	8704.966797
7702.078308	0.095021	0.577379	8788.870117
7702.079349	0.094988	0.577379	8887.751953
7702.080228	0.094955	0.577379	8971.216797
7702.081101	0.095068	0.577379	9054.211914
7702.082088	0.095068	0.577379	9148.043945
7703.094308	1.103914	0.482173	585.074158
7703.095378	1.533051	0.482173	2225.438232
7703.096278	1.508324	0.482173	3582.929687
7703.097151	1.468605	0.482173	4865.021484
7703.098230	1.423422	0.482173	6400.893555
7703.099231	1.382201	0.482173	7784.476562
7703.100128	0.579961	0.482173	8304.701172
7703.101113	0.097581	0.482173	8400.818359
7703.102169	0.094991	0.482173	8501.128906
7703.103066	0.095028	0.482173	8586.369141
7703.103927	0.094984	0.482173	8668.150391
7703.105025	0.094937	0.482173	8772.390625
7703.105988	0.094948	0.482173	8863.825195
7703.106852	0.094980	0.482173	8945.888672
7703.107914	0.095002	0.482173	9046.781250
7703.108946	0.095024	0.482173	9144.846680
7703.109838	0.094966	0.482173	9229.556641
7704.106432	1.038691	0.474870	443.521240
7704.107485	1.529520	0.474870	2054.105957
7704.108550	1.507020	0.474870	3659.082520
7704.109469	1.466092	0.474870	5006.421387
7704.110331	1.428175	0.474870	6237.508301
7704.111403	1.385182	0.474870	7722.423340
7704.112411	0.512615	0.474870	8239.138672
7704.113292	0.096870	0.474870	8324.481445
7704.114263	0.095046	0.474870	8416.771484
7704.115321	0.095017	0.474870	8517.299805
7704.116217	0.095035	0.474870	8602.451172
7704.117085	0.095024	0.474870	8684.932617
7704.118168	0.095010	0.474870	8787.828125
7704.119163	0.094948	0.474870	8882.300781
7704.120056	0.095006	0.474870	8967.141602
7704.121042	0.095024	0.474870	9060.835937
7704.122102	0.094969	0.474870	9161.503906
7705.103293	1.026643	0.562389	434.270020
7705.104318	1.526613	0.562389	1999.047974
7705.105368	1.509291	0.562389	3583.803223
7705.106250	1.469487	0.562389	4879.891113
7705.107115	1.432408	0.562389	6118.924316
7705.108155	1.389650	0.562389	7564.160156
7705.109122	0.728657	0.562389	8268.771484
7705.109996	0.101085	0.562389	8357.120117
7705.110857	0.094885	0.562389	8438.816406
7705.111956	0.094980	0.562389	8543.200195
7705.112866	0.094995	0.562389	8629.645508
7705.113730	0.094911	0.562389	8711.648437
7705.114791	0.095050	0.562389	8812.496094
7705.115767	0.094951	0.562389	8905.167969
7705.116647	0.094915	0.562389	8988.692383
7705.117505	0.094969	0.562389	9070.175781
7705.118617	0.094969	0.562389	9175.782227
7706.145331	1.141124	0.380079	604.795898
7706.146223	1.530699	0.380079	1970.179687
7706.147090	1.517036	0.380079	3285.450195
7706.148019	1.476046	0.380079	4656.697266
7706.149015	1.433727	0.380079	6084.688965
7706.149928	1.395707	0.380079	7358.969238
7706.150817	1.034161	0.380079	8278.338867
7706.151881	0.108966	0.380079	8394.278320
7706.152789	0.094834	0.380079	8480.387695
7706.153711	0.094962	0.380079	8567.942383
7706.154577	0.094980	0.380079	8650.195312
7706.155598	0.095002	0.380079	8747.192383
7706.156521	0.094969	0.380079	8834.849609
7706.157394	0.094991	0.380079	8917.777344
7706.158367	0.094999	0.380079	9010.210937
7706.159273	0.094933	0.380079	9096.219727
7706.160191	0.094878	0.380079	9183.317383
7707.120115	1.059404	0.605561	496.860596
7707.121011	1.526836	0.605561	1864.905518
7707.121876	1.519072	0.605561	3178.903076
7707.122799	1.478485	0.605561	4543.544922
7707.123748	1.437389	0.605561	5907.626953
7707.124671	1.399424	0.605561	7199.294922
7707.125543	1.113625	0.605561	8170.376465
7707.126525	0.138940	0.605561	8306.816406
7707.127476	0.094871	0.605561	8397.038086
7707.128361	0.094991	0.605561	8481.105469
7707.129261	0.094977	0.605561	8566.584961
7707.130209	0.094940	0.605561	8656.587891
7707.131135	0.094915	0.605561	8744.478516
7707.132004	0.094907	0.605561	8826.953125
7707.132923	0.094834	0.605561	8914.105469
7707.133873	0.094988	0.605561	9004.343750
7707.134800	0.095017	0.605561	9092.424805
7708.175292	1.028595	0.361368	436.124268
7708.176231	1.525389	0.361368	1868.464966
7708.177160	1.516853	0.361368	3277.621338
7708.178094	1.476303	0.361368	4656.487793
7708.178972	1.438114	0.361368	5919.151855
7708.179933	1.398713	0.361368	7263.315430
7708.180893	1.031008	0.361368	8253.083008
7708.181784	0.124885	0.361368	8364.355469
7708.182659	0.094841	0.361368	8447.341797
7708.183623	0.094966	0.361368	8538.888672
7708.184568	0.094944	0.361368	8628.610352
7708.185456	0.095065	0.361368	8713.027344
7708.186379	0.094951	0.361368	8800.666992
7708.187336	0.094969	0.361368	8891.552734
7708.188205	0.094991	0.361368	8974.100586
7708.189097	0.094955	0.361368	9058.800781
7708.190032	0.095006	0.361368	9147.631836
7709.150748	1.113095	0.577439	564.338928
7709.151773	1.532644	0.577439	2135.299072
7709.152667	1.510920	0.577439	3486.062012
7709.153641	1.468586	0.577439	4916.464844
7709.154705	1.422795	0.577439	6430.319336
7709.155632	1.384596	0.577439	7713.839844
7709.156501	0.688564	0.577439	8312.202148
7709.157578	0.096812	0.577439	8416.467773
7709.158574	0.094969	0.577439	8511.057617
7709.159462	0.094940	0.577439	8595.364258
7709.160443	0.094995	0.577439	8688.554687
7709.161495	0.094973	0.577439	8788.466797
7709.162404	0.095024	0.577439	8874.843750
7709.163264	0.094988	0.577439	8956.533203
7709.164350	0.095010	0.577439	9059.713867
7709.165332	0.094900	0.577439	9152.905273
7709.166214	0.094973	0.577439	9236.671875
7710.190587	1.087657	0.413628	515.549622
7710.191482	1.528403	0.413628	1883.470459
7710.192348	1.518713	0.413628	3198.676270
7710.193318	1.477386	0.413628	4631.741211
7710.194263	1.436953	0.413628	5989.662109
7710.195141	1.399625	0.413628	7218.533203
7710.196059	1.093759	0.413628	8222.603516
7710.196994	0.133920	0.413628	8347.818359
7710.197937	0.094860	0.413628	8437.270508
7710.198825	0.094973	0.413628	8521.606445
7710.199739	0.094973	0.413628	8608.412109
7710.200700	0.094980	0.413628	8699.688477
7710.201616	0.094940	0.413628	8786.653320
7710.202482	0.094867	0.413628	8868.807617
7710.203440	0.095024	0.413628	8959.840820
7710.204398	0.095021	0.413628	9050.871094
7710.205271	0.094984	0.413628	9133.791992
7711.193609	1.100610	0.466157	550.305176
7711.194660	1.532421	0.466157	2160.879395
7711.195562	1.510492	0.466157	3523.343262
7711.196431	1.470198	0.466157	4800.945312
7711.197549	1.424187	0.466157	6393.186523
7711.198509	1.384900	0.466157	7722.690430
7711.199387	0.682383	0.466157	8321.822266
7711.200444	0.097438	0.466157	8424.814453
7711.201470	0.095010	0.466157	8522.294922
7711.202350	0.094969	0.466157	8605.868164
7711.203256	0.095043	0.466157	8691.976562
7711.204331	0.094991	0.466157	8794.092773
7711.205273	0.094885	0.466157	8883.474609
7711.206134	0.094955	0.466157	8965.230469
7711.207168	0.095010	0.466157	9063.470703
7711.208199	0.094969	0.466157	9161.383789
7711.209072	0.094926	0.466157	9244.253906
7712.204225	1.032902	0.474181	436.917358
7712.205152	1.524075	0.474181	1849.734619
7712.206130	1.516307	0.474181	3332.683105
7712.207056	1.475614	0.474181	4699.101562
7712.207925	1.437462	0.474181	5948.255859
7712.208855	1.397769	0.474181	7248.180664
7712.209818	1.006824	0.474181	8217.751953
7712.210740	0.121652	0.474181	8329.915039
7712.211609	0.094937	0.474181	8412.415039
7712.212572	0.095006	0.474181	8503.906250
7712.213498	0.094995	0.474181	8591.872070
7712.214360	0.095065	0.474181	8673.817383
7712.215302	0.094958	0.474181	8763.268555
7712.216249	0.094973	0.474181	8853.208008
7712.217168	0.095050	0.474181	8940.558594
7712.218025	0.095021	0.474181	9021.991211
7712.218966	0.095043	0.474181	9111.426758
7713.232329	1.042364	0.406296	451.343811
7713.233303	1.524979	0.406296	1936.673584
7713.234352	1.510708	0.406296	3521.406250
7713.235267	1.469978	0.406296	4866.436035
7713.236132	1.431511	0.406296	6104.693359
7713.237222	1.387954	0.406296	7617.563477
7713.238215	0.627869	0.406296	8241.037109
7713.239087	0.098756	0.406296	8327.152344
7713.240060	0.095024	0.406296	8419.611328
7713.241117	0.095054	0.406296	8520.083008
7713.242000	0.094995	0.406296	8603.963867
7713.242872	0.094980	0.406296	8686.787109
7713.243964	0.094988	0.406296	8790.513672
7713.244920	0.094955	0.406296	8881.290039
7713.245803	0.094999	0.406296	8965.173828
7713.246793	0.095076	0.406296	9059.298828
7713.247863	0.095028	0.406296	9160.978516
7714.224569	1.030668	0.527468	433.911072
7714.225517	1.525942	0.527468	1880.504395
7714.226448	1.516780	0.527468	3292.626465
7714.227336	1.477720	0.527468	4604.841797
7714.228245	1.439084	0.527468	5912.969727
7714.229182	1.398863	0.527468	7223.704590
7714.230151	1.050059	0.527468	8241.210937
7714.231036	0.133879	0.527468	8359.694336
7714.231966	0.094937	0.527468	8447.985352
7714.232912	0.094977	0.527468	8537.833008
7714.233828	0.094995	0.527468	8624.848633
7714.234686	0.094988	0.527468	8706.348633
7714.235610	0.095006	0.527468	8794.134766
7714.236551	0.094977	0.527468	8883.507812
7714.237466	0.094977	0.527468	8970.411133
7714.238331	0.095010	0.527468	9052.594727
7714.239303	0.094973	0.527468	9144.908203
7715.259326	1.037611	0.402062	444.097565
7715.260190	1.523481	0.402062	1760.385376
7715.261240	1.515132	0.402062	3351.273926
7715.262127	1.476072	0.402062	4660.549805
7715.263006	1.438330	0.402062	5924.841797
7715.264002	1.397970	0.402062	7317.219727
7715.264944	0.994658	0.402062	8254.187500
7715.265844	0.120245	0.402062	8362.408203
7715.266716	0.094860	0.402062	8445.125977
7715.267732	0.095043	0.402062	8541.689453
7715.268628	0.094937	0.402062	8626.752930
7715.269500	0.094958	0.402062	8709.556641
7715.270417	0.094977	0.402062	8796.650391
7715.271405	0.094962	0.402062	8890.472656
7715.272327	0.094937	0.402062	8978.003906
7715.273201	0.094962	0.402062	9061.000977
7715.274209	0.094988	0.402062	9156.749023
7716.254245	1.117031	0.507447	577.505127
7716.255145	1.530308	0.507447	1954.781982
7716.256020	1.516791	0.507447	3281.973877
7716.256914	1.476705	0.507447	4602.148437
7716.257945	1.433269	0.507447	6079.848633
7716.258835	1.395780	0.507447	7322.092773
7716.259767	1.004202	0.507447	8258.008789
7716.260628	0.126738	0.507447	8367.130859
7716.261597	0.094863	0.507447	8459.053711
7716.262528	0.094973	0.507447	8547.473633
7716.263405	0.094988	0.507447	8630.778320
7716.264424	0.094915	0.507447	8727.496094
7716.265319	0.094955	0.507447	8812.480469
7716.266234	0.094948	0.507447	8899.357422
7716.267105	0.094948	0.507447	8982.056641
7716.268100	0.094933	0.507447	9076.514648
7716.269025	0.094948	0.507447	9164.340820
7717.278665	1.042434	0.425076	456.586121
7717.279539	1.524924	0.425076	1789.369873
7717.280403	1.520354	0.425076	3102.955811
7717.281408	1.478694	0.425076	4589.042969
7717.282335	1.438228	0.425076	5922.279785
7717.283227	1.400969	0.425076	7171.944336
7717.284148	1.131398	0.425076	8213.961914
7717.285081	0.141350	0.425076	8345.841797
7717.286021	0.094827	0.425076	8434.978516
7717.286908	0.094966	0.425076	8519.212891
7717.287836	0.094955	0.425076	8607.331055
7717.288779	0.094962	0.425076	8696.880859
7717.289695	0.094995	0.425076	8783.896484
7717.290563	0.094977	0.425076	8866.335937
7717.291509	0.095002	0.425076	8956.208008
7717.292420	0.094900	0.425076	9042.662109
7717.293343	0.094951	0.425076	9130.301758
7718.287819	1.034033	0.453697	451.872498
7718.288691	1.524265	0.453697	1781.031738
7718.289576	1.519288	0.453697	3125.602051
7718.290687	1.474079	0.453697	4763.304199
7718.291566	1.434954	0.453697	6024.628418
7718.292439	1.398582	0.453697	7245.589844
7718.293481	0.904453	0.453697	8188.029785
7718.294449	0.105146	0.453697	8289.811523
7718.295331	0.094918	0.453697	8373.529297
7718.296190	0.094969	0.453697	8455.108398
7718.297312	0.095050	0.453697	8561.754883
7718.298211	0.094958	0.453697	8647.123047
7718.299073	0.095039	0.453697	8729.046875
7718.300164	0.095123	0.453697	8832.826172
7718.301129	0.094977	0.453697	8924.478516
7718.302015	0.094984	0.453697	9008.634766
7718.302870	0.095024	0.453697	9089.880859
7719.294417	1.045847	0.473375	451.805969
7719.295306	1.525569	0.473375	1808.036621
7719.296181	1.520533	0.473375	3138.503418
7719.297089	1.481133	0.473375	4483.372070
7719.298078	1.438228	0.473375	5905.779297
7719.299002	1.399779	0.473375	7199.174805
7719.299883	1.164467	0.473375	8225.070312
7719.300808	0.159760	0.473375	8372.847656
7719.301760	0.094973	0.473375	8463.261719
7719.302684	0.094977	0.473375	8551.020508
7719.303550	0.094966	0.473375	8633.260742
7719.304467	0.095057	0.473375	8720.428711
7719.305419	0.094966	0.473375	8810.835937
7719.306341	0.095021	0.473375	8898.445312
7719.307212	0.095024	0.473375	8981.211914
7719.308183	0.095043	0.473375	9073.498047
7719.309109	0.094922	0.473375	9161.395508
7720.321017	1.120166	0.383363	546.641052
7720.321979	1.530747	0.383363	2019.219727
7720.322904	1.513975	0.383363	3419.646240
7720.323776	1.474706	0.383363	4705.589844
7720.324748	1.434302	0.383363	6099.730957
7720.325697	1.394967	0.383363	7423.554687
7720.326577	0.997013	0.383363	8300.925781
7720.327493	0.125131	0.383363	8415.545898
7720.328413	0.094849	0.383363	8502.806641
7720.329360	0.095039	0.383363	8592.808594
7720.330249	0.094980	0.383363	8677.246094
7720.331158	0.094948	0.383363	8763.553711
7720.332111	0.094937	0.383363	8854.028320
7720.333028	0.094940	0.383363	8941.088867
7720.333891	0.094918	0.383363	9023.002930
7720.334868	0.094922	0.383363	9115.741211
7720.335779	0.094951	0.383363	9202.242187
7721.312812	1.131376	0.509195	591.709473
7721.313851	1.532977	0.509195	2184.472656
7721.314734	1.510415	0.509195	3518.169189
7721.315672	1.469033	0.509195	4896.122070
7721.316732	1.423923	0.509195	6405.480957
7721.317672	1.385167	0.509195	7707.538086
7721.318543	0.707135	0.509195	8323.453125
7721.319604	0.097639	0.509195	8427.047852
7721.320616	0.095021	0.509195	8523.208984
7721.321485	0.095010	0.509195	8605.772461
7721.322442	0.094951	0.509195	8696.640625
7721.323489	0.095043	0.509195	8796.150391
7721.324406	0.094977	0.509195	8883.244141
7721.325274	0.095021	0.509195	8965.721680
7721.326325	0.095002	0.509195	9065.569336
7721.327331	0.094991	0.509195	9161.130859
7721.328225	0.095002	0.509195	9246.063477
7722.354127	1.046829	0.374400	460.604584
7722.354995	1.524679	0.374400	1784.025879
7722.356038	1.514762	0.374400	3363.922852
7722.357060	1.470227	0.374400	4866.495117
7722.357944	1.431720	0.374400	6132.135742
7722.358882	1.393136	0.374400	7438.897461
7722.359940	0.726973	0.374400	8208.034180
7722.360880	0.099463	0.374400	8301.529297
7722.361740	0.094896	0.374400	8383.139648
7722.362792	0.095057	0.374400	8483.139648
7722.363811	0.094933	0.374400	8579.875977
7722.364680	0.094980	0.374400	8662.414062
7722.365630	0.095068	0.374400	8752.728516
7722.366675	0.095017	0.374400	8852.021484
7722.367603	0.094991	0.374400	8940.173828
7722.368470	0.094962	0.374400	9022.505859
7722.369535	0.095094	0.374400	9123.781250
7723.336121	1.025980	0.505155	432.963623
7723.337047	1.522731	0.505155	1843.012207
7723.337992	1.516769	0.505155	3276.358887
7723.338929	1.475962	0.505155	4659.334961
7723.339824	1.437297	0.505155	5945.716309
7723.340757	1.398450	0.505155	7250.469727
7723.341717	1.027833	0.505155	8237.189453
7723.342637	0.124801	0.505155	8352.006836
7723.343499	0.094929	0.505155	8433.835937
7723.344434	0.094929	0.505155	8522.594727
7723.345356	0.095021	0.505155	8610.204102
7723.346274	0.094991	0.505155	8697.406250
7723.347141	0.094980	0.505155	8779.753906
7723.348105	0.094948	0.505155	8871.283203
7723.349026	0.094948	0.505155	8958.729492
7723.349890	0.094984	0.505155	9040.795898
7723.350845	0.094966	0.505155	9131.488281
7724.385249	1.090122	0.331107	497.095612
7724.386182	1.529865	0.331107	1924.459229
7724.387063	1.518072	0.331107	3261.881104
7724.387987	1.477625	0.331107	4627.206055
7724.388945	1.436730	0.331107	6003.593262
7724.389868	1.398072	0.331107	7294.014160
7724.390738	1.109235	0.331107	8259.048828
7724.391691	0.136300	0.331107	8388.942383
7724.392603	0.094911	0.331107	8475.500977
7724.393520	0.095002	0.331107	8562.618164
7724.394393	0.095002	0.331107	8645.555664
7724.395357	0.094988	0.331107	8737.124023
7724.396302	0.095061	0.331107	8826.957031
7724.397193	0.095013	0.331107	8911.614258
7724.398099	0.095024	0.331107	8997.706055
7724.399034	0.095065	0.331107	9086.591797
7724.399963	0.095021	0.331107	9174.866211
7725.361097	1.040673	0.525832	457.895966
7725.362056	1.528850	0.525832	1924.063232
7725.362991	1.514297	0.525832	3339.930664
7725.363921	1.474453	0.525832	4711.171875
7725.364792	1.435430	0.525832	5961.431152
7725.365898	1.390876	0.525832	7499.740234
7725.366911	0.714957	0.525832	8223.992187
7725.367805	0.100334	0.525832	8313.691406
7725.368779	0.094911	0.525832	8406.134766
7725.369821	0.095061	0.525832	8505.188477
7725.370730	0.095065	0.525832	8591.602539
7725.371593	0.095072	0.525832	8673.649414
7725.372673	0.095123	0.525832	8776.382812
7725.373666	0.095006	0.525832	8870.723633
7725.374544	0.095039	0.525832	8954.167969
7725.375548	0.095072	0.525832	9049.620117
7725.376595	0.095021	0.525832	9149.106445
7726.411748	1.070350	0.332650	483.798340
7726.412672	1.528550	0.332650	1896.178345
7726.413545	1.518538	0.332650	3221.861572
7726.414463	1.477881	0.332650	4578.556152
7726.415427	1.436814	0.332650	5963.644531
7726.416348	1.398560	0.332650	7251.717773
7726.417228	1.102808	0.332650	8222.188477
7726.418207	0.132070	0.332650	8351.485352
7726.419152	0.094841	0.332650	8441.110352
7726.420044	0.095010	0.332650	8525.859375
7726.420950	0.095013	0.332650	8611.941406
7726.421868	0.094973	0.332650	8699.126953
7726.422810	0.094926	0.332650	8788.546875
7726.423689	0.095010	0.332650	8872.060547
7726.424592	0.094969	0.332650	8957.818359
7726.425543	0.094969	0.332650	9048.134766
7726.426459	0.094929	0.332650	9135.089844
7727.387091	1.051666	0.545023	459.578156
7727.387977	1.525107	0.545023	1810.823242
7727.388855	1.520167	0.545023	3145.530029
7727.389815	1.480250	0.545023	4566.570312
7727.390741	1.438125	0.545023	5898.273926
7727.391676	1.399512	0.545023	7206.817383
7727.392559	1.157054	0.545023	8228.496094
7727.393491	0.155581	0.545023	8373.498047
7727.394441	0.094944	0.545023	8463.694336
7727.395357	0.095017	0.545023	8550.730469
7727.396218	0.094984	0.545023	8632.511719
7727.397165	0.095087	0.545023	8722.558594
7727.398111	0.095021	0.545023	8812.448242
7727.399006	0.095032	0.545023	8897.501953
7727.399894	0.095017	0.545023	8981.876953
7727.400834	0.095013	0.545023	9071.189453
7727.401778	0.094980	0.545023	9160.850586
7728.437752	1.098779	0.317077	536.204285
7728.438688	1.530121	0.317077	1968.397461
7728.439609	1.515575	0.317077	3364.242187
7728.440472	1.476819	0.317077	4638.736816
7728.441425	1.435939	0.317077	6007.186523
7728.442385	1.396329	0.317077	7347.662598
7728.443284	1.034667	0.317077	8277.828125
7728.444173	0.131711	0.317077	8394.919922
7728.445121	0.094867	0.317077	8484.853516
7728.446073	0.094966	0.317077	8575.260742
7728.446958	0.095013	0.317077	8659.347656
7728.447865	0.095024	0.317077	8745.535156
7728.448820	0.095002	0.317077	8836.262695
7728.449742	0.094933	0.317077	8923.791016
7728.450607	0.094937	0.317077	9005.911133
7728.451574	0.094878	0.317077	9097.658203
7728.452472	0.094940	0.317077	9182.914062
7729.414583	1.024614	0.536068	431.362579
7729.415581	1.524686	0.536068	1952.999390
7729.416579	1.511752	0.536068	3461.727539
7729.417468	1.472274	0.536068	4770.579102
7729.418349	1.434686	0.536068	6034.537598
7729.419339	1.394260	0.536068	7414.855469
7729.420264	0.922698	0.536068	8268.350586
7729.421186	0.111984	0.536068	8371.599609
7729.422042	0.094937	0.536068	8452.865234
7729.423057	0.095072	0.536068	8549.363281
7729.423955	0.094966	0.536068	8634.642578
7729.424828	0.095076	0.536068	8717.643555
7729.425769	0.095035	0.536068	8807.072266
7729.426738	0.094962	0.536068	8899.090820
7729.427657	0.095002	0.536068	8986.398437
7729.428521	0.095028	0.536068	9068.502930
7729.429552	0.095035	0.536068	9166.484375
7730.460088	1.038182	0.317782	437.074768
7730.461075	1.528788	0.317782	1945.988281
7730.462017	1.514996	0.317782	3373.114746
7730.462909	1.475603	0.317782	4689.352539
7730.463825	1.436426	0.317782	6005.118652
7730.464793	1.396490	0.317782	7356.921387
7730.465723	0.994351	0.317782	8281.667969
7730.466585	0.125610	0.317782	8389.944336
7730.467553	0.094944	0.317782	8481.849609
7730.468499	0.094955	0.317782	8571.676758
7730.469372	0.095039	0.317782	8654.645508
7730.470422	0.094991	0.317782	8754.386719
7730.471372	0.095065	0.317782	8844.698242
7730.472301	0.095013	0.317782	8932.965820
7730.473179	0.095057	0.317782	9016.425781
7730.474156	0.094969	0.317782	9109.210937
7730.475108	0.094973	0.317782	9199.625000
7731.445206	1.049055	0.508788	464.731476
7731.446067	1.524320	0.508788	1777.171021
7731.446994	1.517996	0.508788	3184.353027
7731.447963	1.476669	0.508788	4615.245117
7731.448893	1.436953	0.508788	5951.611328
7731.449771	1.399709	0.508788	7180.556152
7731.450734	1.077378	0.508788	8218.071289
7731.451690	0.129185	0.508788	8341.571289
7731.452581	0.094951	0.508788	8426.172852
7731.453471	0.095021	0.508788	8510.741211
7731.454407	0.094988	0.508788	8599.649414
7731.455348	0.095039	0.508788	8689.081055
7731.456227	0.095006	0.508788	8772.591797
7731.457138	0.095013	0.508788	8859.149414
7731.458086	0.095046	0.508788	8949.252930
7731.459018	0.095098	0.508788	9037.883789
7731.459891	0.095013	0.508788	9120.830078
7732.482525	1.064183	0.311530	475.689972
7732.483394	1.525400	0.311530	1801.262817
7732.484369	1.517505	0.311530	3280.830078
7732.485302	1.476812	0.311530	4658.695312
7732.486172	1.438502	0.311530	5910.192383
7732.487070	1.400808	0.311530	7168.118164
7732.488027	1.056951	0.311530	8179.620117
7732.488994	0.126885	0.311530	8302.317383
7732.489880	0.094856	0.311530	8386.359375
7732.490789	0.094988	0.311530	8472.703125
7732.491736	0.094951	0.311530	8562.622070
7732.492659	0.095061	0.311530	8650.363281
7732.493520	0.095006	0.311530	8732.163086
7732.494481	0.094948	0.311530	8823.407227
7732.495410	0.094988	0.311530	8911.650391
7732.496304	0.094958	0.311530	8996.542969
7732.497178	0.094929	0.311530	9079.510742
7733.477921	1.100914	0.435034	579.080872
7733.478986	1.532516	0.435034	2211.210205
7733.479900	1.507899	0.435034	3589.430176
7733.480777	1.467927	0.435034	4876.802246
7733.481862	1.422689	0.435034	6420.419922
7733.482863	1.381439	0.435034	7803.240723
7733.483765	0.549631	0.435034	8299.007812
7733.484625	0.097727	0.435034	8383.052734
7733.485730	0.094937	0.435034	8487.958008
7733.486643	0.094915	0.435034	8574.615234
7733.487521	0.094871	0.435034	8657.912109
7733.488522	0.095002	0.435034	8753.009766
7733.489514	0.094915	0.435034	8847.165039
7733.490393	0.094962	0.435034	8930.636719
7733.491249	0.094926	0.435034	9011.892578
7733.492333	0.094922	0.435034	9114.788086
7733.493228	0.094845	0.435034	9199.674805
7734.500352	1.114354	0.328251	551.605347
7734.501309	1.530146	0.328251	2015.955566
7734.502237	1.513861	0.328251	3420.818604
7734.503098	1.474915	0.328251	4690.719727
7734.504048	1.434412	0.328251	6053.410645
7734.505006	1.395015	0.328251	7389.834961
7734.505909	0.996449	0.328251	8289.628906
7734.506821	0.124479	0.328251	8403.153320
7734.507735	0.094849	0.328251	8489.844727
7734.508682	0.094900	0.328251	8579.714844
7734.509567	0.094933	0.328251	8663.730469
7734.510488	0.094995	0.328251	8751.220703
7734.511430	0.094977	0.328251	8840.688477
7734.512352	0.094958	0.328251	8928.240234
7734.513214	0.094999	0.328251	9010.128906
7734.514155	0.094940	0.328251	9099.467773
7734.515086	0.094951	0.328251	9187.867187
7735.512088	1.114530	0.384249	566.181213
7735.512999	1.530945	0.384249	1960.871826
7735.513873	1.515264	0.384249	3285.212402
7735.514949	1.469418	0.384249	4866.305664
7735.515943	1.426571	0.384249	6284.317383
7735.516842	1.389609	0.384249	7533.576172
7735.517836	0.712716	0.384249	8242.015625
7735.518886	0.097236	0.384249	8344.113281
7735.519790	0.094929	0.384249	8429.929687
7735.520652	0.094900	0.384249	8511.733398
7735.521747	0.095017	0.384249	8615.777344
7735.522711	0.094933	0.384249	8707.292969
7735.523588	0.094889	0.384249	8790.510742
7735.524596	0.095021	0.384249	8886.291992
7735.525651	0.095024	0.384249	8986.542969
7735.526532	0.094969	0.384249	9070.210937
7735.527408	0.094991	0.384249	9153.423828
7736.517671	1.110784	0.386050	594.269287
7736.518753	1.532889	0.386050	2252.855469
7736.519674	1.506595	0.386050	3640.429932
7736.520543	1.466876	0.386050	4915.145508
7736.521641	1.421766	0.386050	6476.245117
7736.522613	1.381373	0.386050	7818.939941
7736.523506	0.552513	0.386050	8312.333984
7736.524536	0.096899	0.386050	8412.140625
7736.525577	0.094845	0.386050	8510.874023
7736.526455	0.094915	0.386050	8594.208984
7736.527338	0.094896	0.386050	8678.001953
7736.528411	0.095076	0.386050	8780.018555
7736.529360	0.094977	0.386050	8870.151367
7736.530223	0.094958	0.386050	8952.100586
7736.531246	0.095017	0.386050	9049.302734
7736.532290	0.094962	0.386050	9148.443359
7736.533166	0.094951	0.386050	9231.620117
7737.545236	1.108422	0.360788	567.511902
7737.546137	1.530560	0.360788	1946.546631
7737.547020	1.516512	0.360788	3285.626953
7737.547998	1.474226	0.360788	4727.419922
7737.549014	1.430288	0.360788	6180.592773
7737.549908	1.393063	0.360788	7425.990723
7737.550782	0.956268	0.360788	8261.769531
7737.551857	0.103784	0.360788	8373.337891
7737.552782	0.094878	0.360788	8461.099609
7737.553665	0.094995	0.360788	8544.980469
7737.554634	0.095024	0.360788	8637.059570
7737.555644	0.094882	0.360788	8732.889648
7737.556521	0.094977	0.360788	8816.184570
7737.557380	0.094962	0.360788	8897.756836
7737.558436	0.094878	0.360788	8997.948242
7737.559359	0.094896	0.360788	9085.537109
7737.560224	0.094918	0.360788	9167.641602
7738.537933	1.042020	0.447655	454.320801
7738.538814	1.524763	0.447655	1797.637207
7738.539681	1.520724	0.447655	3116.104736
7738.540716	1.476207	0.447655	4643.979492
7738.541774	1.430636	0.447655	6157.592285
7738.542704	1.392019	0.447655	7452.169922
7738.543586	0.919098	0.447655	8262.814453
7738.544653	0.102147	0.447655	8371.805664
7738.545652	0.094922	0.447655	8466.632812
7738.546538	0.094889	0.447655	8550.704102
7738.547519	0.095017	0.447655	8643.916016
7738.548581	0.094951	0.447655	8744.753906
7738.549484	0.094904	0.447655	8830.452148
7738.550344	0.094937	0.447655	8912.097656
7738.551422	0.095116	0.447655	9014.632812
7738.552416	0.094948	0.447655	9109.010742
7738.553290	0.094882	0.447655	9191.937500
