time (s)	coil I (A)	last det (V)	int current (uC)
1879.991507	1.074620	0.572593	463.161377
1879.992513	1.533582	0.572593	2005.944458
1879.993451	1.517769	0.572593	3429.611328
1879.994320	1.478668	0.572593	4714.574219
1879.995292	1.437682	0.572593	6112.000977
1879.996247	1.398094	0.572593	7447.181152
1879.997146	1.361741	0.572593	8671.385742
1879.998066	1.031873	0.572593	9620.708984
1879.999021	0.124977	0.572593	9740.061523
1879.999934	0.094797	0.572593	9826.611328
1880.000825	0.094955	0.572593	9911.215820
1880.001741	0.094933	0.572593	9998.174805
1880.002701	0.094871	0.572593	10089.250977
1880.003626	0.094863	0.572593	10177.000000
1880.004504	0.094893	0.572593	10260.315430
1880.005483	0.094775	0.572593	10353.100586
1880.006395	0.094896	0.572593	10439.645508
1880.007318	0.094940	0.572593	10527.275391
1881.013241	1.073156	0.591111	509.748871
1881.014139	1.529810	0.591111	1883.517944
1881.015008	1.522592	0.591111	3206.649902
1881.015963	1.481667	0.591111	4621.642090
1881.016915	1.440051	0.591111	5992.570801
1881.017827	1.401951	0.591111	7271.149902
1881.018702	1.366267	0.591111	8466.633789
1881.019669	1.098739	0.591111	9529.114258
1881.020618	0.143236	0.591111	9665.044922
1881.021511	0.094852	0.591111	9749.748047
1881.022422	0.094911	0.591111	9836.211914
1881.023386	0.094951	0.591111	9927.745117
1881.024280	0.094896	0.591111	10012.582031
1881.025201	0.094940	0.591111	10100.021484
1881.026111	0.094878	0.591111	10186.360352
1881.027036	0.094904	0.591111	10274.146484
1881.027927	0.094969	0.591111	10358.764648
1881.028849	0.094889	0.591111	10446.251953
1882.041785	1.023724	0.553378	430.987976
1882.042701	1.526847	0.553378	1829.579834
1882.043659	1.521178	0.553378	3286.868164
1882.044592	1.480561	0.553378	4668.231934
1882.045461	1.442084	0.553378	5921.402832
1882.046518	1.398494	0.553378	7399.610352
1882.047572	1.357024	0.553378	8829.914062
1882.048493	0.873538	0.553378	9634.442383
1882.049353	0.112694	0.553378	9731.359375
1882.050425	0.094958	0.553378	9833.155273
1882.051418	0.094885	0.553378	9927.375977
1882.052301	0.094900	0.553378	10011.172852
1882.053306	0.094918	0.553378	10106.565430
1882.054342	0.094958	0.553378	10204.942383
1882.055225	0.094900	0.553378	10288.739258
1882.056082	0.094852	0.553378	10370.027344
1882.057192	0.094929	0.553378	10475.398437
1882.058154	0.094911	0.553378	10566.703125
1883.027068	1.060682	0.601967	521.855713
1883.028062	1.534589	0.601967	2047.236816
1883.028999	1.516029	0.601967	3467.756104
1883.029870	1.477500	0.601967	4754.658691
1883.030890	1.434236	0.601967	6217.579102
1883.031783	1.395762	0.601967	7463.994141
1883.032693	1.359580	0.601967	8701.211914
1883.033577	0.946278	0.601967	9537.721680
1883.034634	0.106476	0.601967	9650.266602
1883.035530	0.094750	0.601967	9735.162109
1883.036410	0.094918	0.601967	9818.690430
1883.037393	0.094885	0.601967	9911.962891
1883.038318	0.094852	0.601967	9999.701172
1883.039237	0.094874	0.601967	10086.890625
1883.040100	0.094896	0.601967	10168.786133
1883.041140	0.094856	0.601967	10267.436523
1883.042019	0.094849	0.601967	10350.808594
1883.042884	0.094827	0.601967	10432.833984
1884.075839	1.051219	0.661373	447.819489
1884.076932	1.533922	0.661373	2124.396240
1884.077907	1.512341	0.661373	3598.928955
1884.078794	1.473296	0.661373	4905.742187
1884.079810	1.429966	0.661373	6358.587402
1884.080868	1.386445	0.661373	7825.446289
1884.081768	1.350370	0.661373	9040.779297
1884.082684	0.683628	0.661373	9666.982422
1884.083772	0.096500	0.661373	9771.974609
1884.084730	0.094885	0.661373	9862.875000
1884.085590	0.094937	0.661373	9944.520508
1884.086637	0.094999	0.661373	10043.984375
1884.087660	0.094885	0.661373	10141.051758
1884.088555	0.094922	0.661373	10226.006836
1884.089507	0.094966	0.661373	10316.414062
1884.090549	0.094962	0.661373	10415.364258
1884.091477	0.094882	0.661373	10503.414062
1884.092338	0.094955	0.661373	10585.169922
1885.051853	1.044210	0.634343	459.452484
1885.052715	1.525532	0.634343	1774.461304
1885.053784	1.517838	0.634343	3397.030273
1885.054703	1.476921	0.634343	4754.321289
1885.055586	1.438909	0.634343	6024.877930
1885.056550	1.399069	0.634343	7373.580078
1885.057583	1.357427	0.634343	8775.801758
1885.058485	0.943363	0.634343	9626.714844
1885.059349	0.120271	0.634343	9730.628906
1885.060419	0.094926	0.634343	9832.199219
1885.061368	0.094878	0.634343	9922.238281
1885.062249	0.094907	0.634343	10005.851562
1885.063201	0.094966	0.634343	10096.258789
1885.064220	0.094845	0.634343	10192.906250
1885.065102	0.094819	0.634343	10276.537109
1885.065964	0.094918	0.634343	10358.356445
1885.067026	0.094977	0.634343	10459.221680
1885.067963	0.094958	0.634343	10548.198242
1886.100288	1.042595	0.713697	443.102997
1886.101275	1.532029	0.713697	1955.215454
1886.102209	1.518761	0.713697	3373.738281
1886.103095	1.479983	0.713697	4685.002930
1886.104055	1.439597	0.713697	6067.016113
1886.104987	1.399277	0.713697	7371.142578
1886.105906	1.362041	0.713697	8622.858398
1886.106803	1.089203	0.713697	9599.873047
1886.107734	0.142141	0.713697	9732.206055
1886.108691	0.094812	0.713697	9822.941406
1886.109610	0.094955	0.713697	9910.205078
1886.110486	0.094926	0.713697	9993.359375
1886.111457	0.094882	0.713697	10085.489258
1886.112387	0.094904	0.713697	10173.750000
1886.113306	0.094933	0.713697	10260.993164
1886.114164	0.094841	0.713697	10342.367187
1886.115133	0.094999	0.713697	10434.420898
1886.116081	0.094893	0.713697	10524.378906
1887.089316	1.101951	0.729109	584.033813
1887.090383	1.535460	0.729109	2222.369873
1887.091304	1.511188	0.729109	3614.173828
1887.092171	1.471428	0.729109	4889.902344
1887.093267	1.426029	0.729109	6452.830078
1887.094262	1.384354	0.729109	7830.262695
1887.095165	1.349385	0.729109	9048.756836
1887.096181	0.574208	0.729109	9632.152344
1887.097232	0.095830	0.729109	9732.870117
1887.098119	0.094867	0.729109	9817.017578
1887.098998	0.094867	0.729109	9900.405273
1887.100095	0.094973	0.729109	10004.590820
1887.101045	0.094882	0.729109	10094.728516
1887.101904	0.094911	0.729109	10176.256836
1887.102961	0.094900	0.729109	10276.566406
1887.103980	0.094885	0.729109	10373.254883
1887.104854	0.094882	0.729109	10456.181641
1887.105763	0.094874	0.729109	10542.421875
1888.110485	1.106334	0.697652	557.592529
1888.111373	1.532095	0.697652	1918.092651
1888.112283	1.519135	0.697652	3300.504883
1888.113386	1.472117	0.697652	4924.249512
1888.114338	1.431083	0.697652	6286.640137
1888.115208	1.394458	0.697652	7499.818359
1888.116258	1.353289	0.697652	8920.771484
1888.117274	0.642466	0.697652	9573.516602
1888.118171	0.099027	0.697652	9662.343750
1888.119124	0.094955	0.697652	9752.835937
1888.120167	0.094933	0.697652	9851.850586
1888.121095	0.094918	0.697652	9939.934570
1888.121955	0.095021	0.697652	10021.652344
1888.123005	0.094977	0.697652	10121.377930
1888.124017	0.094893	0.697652	10217.409180
1888.124895	0.094907	0.697652	10300.737305
1888.125878	0.095024	0.697652	10394.146484
1888.126935	0.094926	0.697652	10494.482422
1889.142456	1.045437	0.618915	440.128967
1889.143563	1.534537	0.618915	2138.861816
1889.144474	1.514645	0.618915	3518.703125
1889.145361	1.475651	0.618915	4827.605469
1889.146369	1.432881	0.618915	6271.949219
1889.147356	1.391188	0.618915	7645.051270
1889.148258	1.355720	0.618915	8867.911133
1889.149125	0.879298	0.618915	9630.262695
1889.150221	0.101887	0.618915	9741.930664
1889.151120	0.094819	0.618915	9827.172852
1889.151991	0.094911	0.618915	9909.839844
1889.153001	0.094966	0.618915	10005.754883
1889.154005	0.094962	0.618915	10101.096680
1889.154877	0.094933	0.618915	10183.877930
1889.155737	0.094955	0.618915	10265.539062
1889.156841	0.094867	0.618915	10370.272461
1889.157762	0.094874	0.618915	10457.651367
1889.158639	0.094911	0.618915	10540.888672
1890.118374	1.054109	0.752014	488.052399
1890.119266	1.529392	0.752014	1852.270142
1890.120207	1.521094	0.752014	3283.619385
1890.121133	1.479587	0.752014	4653.717285
1890.122062	1.439484	0.752014	5990.997559
1890.122951	1.402643	0.752014	7237.947266
1890.123889	1.364941	0.752014	8518.261719
1890.124844	1.087013	0.752014	9556.359375
1890.125771	0.144943	0.752014	9690.720703
1890.126626	0.094874	0.752014	9771.837891
1890.127576	0.094904	0.752014	9861.996094
1890.128530	0.094926	0.752014	9952.554687
1890.129420	0.094907	0.752014	10037.022461
1890.130292	0.094991	0.752014	10119.855469
1890.131260	0.094918	0.752014	10211.736328
1890.132220	0.094893	0.752014	10302.833008
1890.133117	0.094955	0.752014	10388.007812
1890.134040	0.094816	0.752014	10475.522461
1891.181804	1.060364	0.677309	492.008789
1891.182697	1.530106	0.677309	1858.393555
1891.183570	1.522921	0.677309	3187.903809
1891.184539	1.481415	0.677309	4623.394531
1891.185466	1.439971	0.677309	5958.247559
1891.186404	1.401456	0.677309	7272.813477
1891.187274	1.365842	0.677309	8461.095703
1891.188258	1.101705	0.677309	9545.173828
1891.189199	0.145990	0.677309	9682.550781
1891.190059	0.094794	0.677309	9764.073242
1891.190995	0.094907	0.677309	9852.906250
1891.191928	0.094860	0.677309	9941.410156
1891.192852	0.094958	0.677309	10029.151367
1891.193713	0.094882	0.677309	10110.844727
1891.194687	0.094885	0.677309	10203.262695
1891.195634	0.094929	0.677309	10293.161133
1891.196527	0.094962	0.677309	10377.961914
1891.197442	0.094933	0.677309	10464.825195
1892.146362	1.050223	0.750286	443.194244
1892.147345	1.531414	0.750286	1948.573730
1892.148268	1.518801	0.750286	3350.427246
1892.149166	1.479635	0.750286	4679.139648
1892.150115	1.439725	0.750286	6045.438965
1892.151075	1.399288	0.750286	7388.755859
1892.152005	1.361832	0.750286	8655.259766
1892.152873	1.106726	0.750286	9615.898437
1892.153833	0.133253	0.750286	9743.821289
1892.154794	0.094768	0.750286	9834.893555
1892.155727	0.094904	0.750286	9923.438477
1892.156583	0.094823	0.750286	10004.607422
1892.157530	0.094830	0.750286	10094.412109
1892.158462	0.094852	0.750286	10182.814453
1892.159343	0.094900	0.750286	10266.420898
1892.160333	0.094889	0.750286	10360.361328
1892.161256	0.094878	0.750286	10447.933594
1892.162176	0.094856	0.750286	10535.201172
1893.199411	1.026943	0.771914	429.262299
1893.200388	1.531194	0.771914	1925.238770
1893.201308	1.519200	0.771914	3322.903320
1893.202237	1.479086	0.771914	4696.973633
1893.203109	1.440293	0.771914	5952.909180
1893.204100	1.399937	0.771914	7340.246094
1893.205053	1.362140	0.771914	8638.365234
1893.205945	1.083347	0.771914	9604.710937
1893.206886	0.148616	0.771914	9744.558594
1893.207802	0.094790	0.771914	9831.386719
1893.208735	0.094845	0.771914	9919.876953
1893.209621	0.094874	0.771914	10003.935547
1893.210532	0.094819	0.771914	10090.316406
1893.211483	0.094874	0.771914	10180.541992
1893.212405	0.094911	0.771914	10268.049805
1893.213266	0.094845	0.771914	10349.710937
1893.214235	0.094878	0.771914	10441.647461
1893.215183	0.094889	0.771914	10531.602539
1894.191935	1.028207	0.770106	438.016113
1894.192959	1.528572	0.770106	2003.273560
1894.193884	1.516714	0.770106	3406.233887
1894.194814	1.476497	0.770106	4779.375977
1894.195681	1.437752	0.770106	6025.906250
1894.196724	1.395883	0.770106	7481.811523
1894.197603	1.359950	0.770106	8677.207031
1894.198489	1.049425	0.770106	9606.998047
1894.199449	0.138406	0.770106	9739.867187
1894.200400	0.094775	0.770106	9829.999023
1894.201310	0.094948	0.770106	9916.401367
1894.202182	0.094904	0.770106	9999.157227
1894.203212	0.094896	0.770106	10096.900391
1894.204109	0.094867	0.770106	10181.996094
1894.205026	0.094933	0.770106	10269.049805
1894.205886	0.094867	0.770106	10350.635742
1894.206871	0.094907	0.770106	10444.119141
1894.207802	0.094841	0.770106	10532.416016
1895.207740	1.023358	0.814751	433.903839
1895.208626	1.524067	0.814751	1784.227539
1895.209731	1.516410	0.814751	3459.860352
1895.210612	1.476837	0.814751	4760.954102
1895.211475	1.439062	0.814751	6002.865234
1895.212509	1.395894	0.814751	7446.219238
1895.213492	1.357006	0.814751	8780.156250
1895.214382	0.954533	0.814751	9629.690430
1895.215244	0.122230	0.814751	9735.052734
1895.216351	0.094969	0.814751	9840.183594
1895.217258	0.094926	0.814751	9926.281250
1895.218129	0.094958	0.814751	10008.990234
1895.218986	0.094984	0.814751	10090.391602
1895.220040	0.094918	0.814751	10190.435547
1895.220920	0.094951	0.814751	10273.992187
1895.221788	0.094860	0.814751	10356.330078
1895.222789	0.094948	0.814751	10451.372070
1895.223705	0.094969	0.814751	10538.364258
1896.245313	1.032656	0.758202	441.976837
1896.246356	1.533149	0.758202	2041.051636
1896.247261	1.517263	0.758202	3414.174805
1896.248139	1.478236	0.758202	4712.065918
1896.249073	1.438012	0.758202	6055.168945
1896.250081	1.396304	0.758202	7462.643066
1896.251007	1.359485	0.758202	8721.526367
1896.251879	1.035370	0.758202	9624.369141
1896.252940	0.115957	0.758202	9747.399414
1896.253817	0.094801	0.758202	9830.540039
1896.254684	0.094933	0.758202	9912.846680
1896.255543	0.094969	0.758202	9994.425781
1896.256601	0.094922	0.758202	10094.853516
1896.257499	0.094893	0.758202	10180.067383
1896.258378	0.094955	0.758202	10263.532227
1896.259373	0.095021	0.758202	10358.078125
1896.260317	0.094911	0.758202	10447.673828
1896.261235	0.094871	0.758202	10534.764648
1897.225375	1.116863	0.840202	568.483215
1897.226389	1.534914	0.840202	2124.886475
1897.227283	1.514667	0.840202	3478.998535
1897.228245	1.472618	0.840202	4895.657227
1897.229306	1.427014	0.840202	6409.719238
1897.230232	1.388481	0.840202	7695.453125
1897.231102	1.353303	0.840202	8872.827148
1897.232188	0.614414	0.840202	9540.081055
1897.233180	0.096350	0.840202	9635.660156
1897.234072	0.094834	0.840202	9720.251953
1897.235057	0.094966	0.840202	9813.792969
1897.236098	0.094911	0.840202	9912.594727
1897.237001	0.094808	0.840202	9998.207031
1897.237861	0.094918	0.840202	10079.836914
1897.238950	0.094973	0.840202	10183.262695
1897.239944	0.094860	0.840202	10277.552734
1897.240824	0.094896	0.840202	10361.061523
1897.241816	0.094867	0.840202	10455.169922
1898.273119	1.077741	0.818437	486.060974
1898.274016	1.529136	0.818437	1857.695801
1898.274884	1.521339	0.818437	3178.218262
1898.276002	1.475189	0.818437	4827.479492
1898.276899	1.435690	0.818437	6115.292969
1898.277770	1.399431	0.818437	7334.197266
1898.278772	1.360052	0.818437	8696.969727
1898.279782	0.880990	0.818437	9586.769531
1898.280659	0.111094	0.818437	9684.199219
1898.281523	0.094838	0.818437	9766.138672
1898.282622	0.094926	0.818437	9870.461914
1898.283541	0.094995	0.818437	9957.762695
1898.284462	0.094871	0.818437	10045.138672
1898.285327	0.094948	0.818437	10127.268555
1898.286381	0.094926	0.818437	10227.320312
1898.287265	0.094962	0.818437	10311.266602
1898.288142	0.094926	0.818437	10394.516602
1898.289145	0.094915	0.818437	10489.715820
1899.261328	1.077953	0.877392	550.833984
1899.262379	1.534226	0.877392	2163.305664
1899.263307	1.511462	0.877392	3565.942871
1899.264192	1.472604	0.877392	4869.197266
1899.265168	1.431537	0.877392	6266.377441
1899.266193	1.388386	0.877392	7689.473633
1899.267088	1.352922	0.877392	8900.338867
1899.267961	0.835210	0.877392	9629.477539
1899.269034	0.099972	0.877392	9736.747070
1899.269967	0.094845	0.877392	9825.237305
1899.270845	0.094904	0.877392	9908.562500
1899.271817	0.094937	0.877392	10000.840820
1899.272827	0.094933	0.877392	10096.722656
1899.273716	0.094951	0.877392	10181.133789
1899.274571	0.094955	0.877392	10262.320312
1899.275629	0.094966	0.877392	10362.793945
1899.276565	0.094896	0.877392	10451.617187
1899.277442	0.094885	0.877392	10534.832031
1900.288569	1.150939	0.893400	634.167236
1900.289580	1.535987	0.893400	2187.050537
1900.290479	1.513022	0.893400	3547.257812
1900.291351	1.472446	0.893400	4831.230957
1900.292466	1.426967	0.893400	6422.298828
1900.293377	1.388643	0.893400	7687.352051
1900.294263	1.353988	0.893400	8886.985352
1900.295269	0.714697	0.893400	9605.970703
1900.296267	0.097518	0.893400	9703.293945
1900.297161	0.094933	0.893400	9788.164062
1900.298020	0.094999	0.893400	9869.767578
1900.299108	0.094958	0.893400	9973.082031
1900.300001	0.094980	0.893400	10057.899414
1900.300869	0.094896	0.893400	10140.269531
1900.301872	0.095061	0.893400	10235.616211
1900.302874	0.094926	0.893400	10330.731445
1900.303760	0.094915	0.893400	10414.826172
1900.304628	0.094915	0.893400	10497.211914
1901.302639	1.077671	0.893610	511.893707
1901.303520	1.528986	0.893610	1858.930054
1901.304385	1.522244	0.893610	3175.670898
1901.305423	1.477745	0.893610	4709.570312
1901.306366	1.436887	0.893610	6064.555176
1901.307252	1.399977	0.893610	7304.934570
1901.308199	1.362308	0.893610	8595.041016
1901.309253	0.919515	0.893610	9564.209961
1901.310141	0.114500	0.893610	9665.885742
1901.311001	0.094805	0.893610	9747.417969
1901.312058	0.095028	0.893610	9847.862305
1901.312997	0.094893	0.893610	9936.966797
1901.313871	0.094962	0.893610	10019.963867
1901.314799	0.094969	0.893610	10108.095703
1901.315852	0.094893	0.893610	10208.017578
1901.316739	0.094911	0.893610	10292.203125
1901.317595	0.094933	0.893610	10373.465820
1901.318617	0.094958	0.893610	10470.513672
1902.297661	1.033118	0.953128	435.975647
1902.298744	1.531970	0.953128	2095.099365
1902.299673	1.513975	0.953128	3501.581543
1902.300552	1.475358	0.953128	4798.420898
1902.301550	1.433463	0.953128	6229.017090
1902.302573	1.390151	0.953128	7651.142090
1902.303455	1.354830	0.953128	8846.102539
1902.304330	0.905599	0.953128	9638.501953
1902.305371	0.104143	0.953128	9746.915039
1902.306314	0.094871	0.953128	9836.377930
1902.307231	0.094874	0.953128	9923.377930
1902.308104	0.094885	0.953128	10006.212891
1902.309129	0.094885	0.953128	10103.470703
1902.310048	0.094863	0.953128	10190.650391
1902.310927	0.094882	0.953128	10274.051758
1902.311873	0.094882	0.953128	10363.809570
1902.312852	0.094867	0.953128	10456.684570
1902.313773	0.094863	0.953128	10544.053711
1903.347383	1.024296	0.807384	429.179901
1903.348255	1.524199	0.807384	1758.281616
1903.349305	1.518018	0.807384	3352.200195
1903.350199	1.478449	0.807384	4673.933105
1903.351079	1.440538	0.807384	5941.606934
1903.352110	1.398702	0.807384	7383.668945
1903.353027	1.360664	0.807384	8631.397461
1903.353958	1.035835	0.807384	9595.759766
1903.354824	0.137183	0.807384	9714.559570
1903.355863	0.094823	0.807384	9813.081055
1903.356733	0.094896	0.807384	9895.640625
1903.357611	0.094929	0.807384	9978.988281
1903.358587	0.094863	0.807384	10071.575195
1903.359518	0.094841	0.807384	10159.872070
1903.360438	0.094834	0.807384	10247.119141
1903.361307	0.094900	0.807384	10329.586914
1903.362340	0.094863	0.807384	10427.581055
1903.363231	0.094845	0.807384	10512.087891
1904.319208	1.089928	0.971183	505.726562
1904.320106	1.529235	0.971183	1878.979248
1904.321106	1.516406	0.971183	3395.385254
1904.322176	1.470381	0.971183	4968.692871
1904.323079	1.431152	0.971183	6261.023437
1904.323948	1.394795	0.971183	7473.100098
1904.324997	1.353629	0.971183	8893.056641
1904.325966	0.749282	0.971183	9619.111328
1904.326846	0.102250	0.971183	9709.090820
1904.327742	0.094867	0.971183	9794.091797
1904.328838	0.094951	0.971183	9898.158203
1904.329716	0.094973	0.971183	9981.544922
1904.330573	0.094911	0.971183	10062.883789
1904.331622	0.094966	0.971183	10162.502930
1904.332589	0.094871	0.971183	10254.243164
1904.333464	0.094860	0.971183	10337.245117
1904.334321	0.094915	0.971183	10418.586914
1904.335409	0.094867	0.971183	10521.801758
1905.376702	1.033345	0.855341	440.204865
1905.377718	1.530198	0.855341	1994.885742
1905.378789	1.511880	0.855341	3614.108887
1905.379667	1.471545	0.855341	4906.125977
1905.380582	1.431852	0.855341	6216.270508
1905.381655	1.387826	0.855341	7705.407715
1905.382602	1.350579	0.855341	8984.406250
1905.383482	0.762272	0.855341	9655.205078
1905.384522	0.098716	0.855341	9757.869141
1905.385554	0.094948	0.855341	9855.854492
1905.386448	0.094907	0.855341	9940.701172
1905.387317	0.094962	0.855341	10023.223633
1905.388375	0.095006	0.855341	10123.740234
1905.389330	0.094918	0.855341	10214.386719
1905.390205	0.094951	0.855341	10297.468750
1905.391156	0.094991	0.855341	10387.805664
1905.392174	0.094944	0.855341	10484.458984
1905.393056	0.094948	0.855341	10568.203125
1906.348867	1.031495	0.980468	435.291016
1906.349731	1.523855	0.980468	1751.901733
1906.350719	1.520068	0.980468	3253.729248
1906.351666	1.479734	0.980468	4655.037109
1906.352553	1.440611	0.980468	5932.859375
1906.353516	1.400720	0.980468	7281.752930
1906.354580	1.357914	0.980468	8726.573242
1906.355586	0.845739	0.980468	9577.386719
1906.356457	0.108790	0.980468	9672.142578
1906.357436	0.094896	0.980468	9765.045898
1906.358485	0.094904	0.980468	9864.599609
1906.359395	0.094951	0.980468	9951.004883
1906.360263	0.094896	0.980468	10033.375000
1906.361353	0.094955	0.980468	10136.875977
1906.362334	0.094834	0.980468	10229.908203
1906.363228	0.094933	0.980468	10314.778320
1906.364217	0.094969	0.980468	10408.703125
1906.365272	0.094893	0.980468	10508.814453
1907.400700	1.067651	0.941337	512.472656
1907.401581	1.530165	0.941337	1860.547852
1907.402471	1.520709	0.941337	3213.979004
1907.403428	1.478485	0.941337	4628.889160
1907.404388	1.437773	0.941337	6009.151367
1907.405280	1.400442	0.941337	7258.345703
1907.406200	1.363803	0.941337	8513.043945
1907.407161	1.075767	0.941337	9546.855469
1907.408090	0.137904	0.941337	9674.968750
1907.408958	0.094863	0.941337	9757.310547
1907.409934	0.094889	0.941337	9849.921875
1907.410862	0.094849	0.941337	9937.941406
1907.411760	0.094896	0.941337	10023.158203
1907.412640	0.094907	0.941337	10106.676758
1907.413602	0.094882	0.941337	10197.953125
1907.414536	0.094911	0.941337	10286.599609
1907.415431	0.094962	0.941337	10371.590820
1907.416350	0.094889	0.941337	10458.793945
1908.381753	1.041581	1.052068	438.505524
1908.382739	1.529696	1.052068	1946.785767
1908.383661	1.517772	1.052068	3346.171875
1908.384543	1.479251	1.052068	4650.871094
1908.385484	1.439077	1.052068	6005.042969
1908.386420	1.399351	1.052068	7314.834961
1908.387353	1.362074	1.052068	8585.650391
1908.388236	1.121019	1.052068	9575.510742
1908.389192	0.146697	1.052068	9715.752930
1908.390128	0.094830	1.052068	9804.513672
1908.391038	0.094922	1.052068	9890.892578
1908.391900	0.094885	1.052068	9972.683594
1908.392872	0.094871	1.052068	10064.897461
1908.393819	0.094900	1.052068	10154.767578
1908.394712	0.094874	1.052068	10239.490234
1908.395643	0.094845	1.052068	10327.791016
1908.396576	0.094904	1.052068	10416.335937
1908.397484	0.094856	1.052068	10502.464844
1909.426164	1.074818	0.880365	518.062317
1909.427131	1.532322	0.880365	1999.817383
1909.428060	1.516527	0.880365	3408.670898
1909.428928	1.477767	0.880365	4691.373047
1909.429907	1.436733	0.880365	6097.935059
1909.430843	1.397007	0.880365	7405.533203
1909.431748	1.361027	0.880365	8637.262695
1909.432619	1.038981	0.880365	9542.214844
1909.433591	0.129382	0.880365	9667.974609
1909.434533	0.094779	0.880365	9757.256836
1909.435425	0.094867	0.880365	9841.877930
1909.436341	0.094871	0.880365	9928.779297
1909.437304	0.094882	0.880365	10020.150391
1909.438226	0.094830	0.880365	10107.583984
1909.439097	0.094889	0.880365	10190.232422
1909.440097	0.094878	0.880365	10285.110352
1909.441036	0.094882	0.880365	10374.204102
1909.441966	0.094926	0.880365	10462.484375
1910.411549	1.106902	1.000183	564.519897
1910.412436	1.530758	1.000183	1922.302246
1910.413325	1.517842	1.000183	3271.663574
1910.414420	1.471465	1.000183	4882.917480
1910.415385	1.430266	1.000183	6263.124023
1910.416261	1.393564	1.000183	7483.886230
1910.417287	1.353040	1.000183	8872.104492
1910.418328	0.648365	1.000183	9547.052734
1910.419212	0.098987	1.000183	9634.556641
1910.420152	0.094962	1.000183	9723.821289
1910.421210	0.094922	1.000183	9824.249023
1910.422152	0.094860	1.000183	9913.606445
1910.423019	0.094816	1.000183	9995.811523
1910.424076	0.094889	1.000183	10096.109375
1910.425081	0.094889	1.000183	10191.472656
1910.425975	0.094871	1.000183	10276.287109
1910.426928	0.094896	1.000183	10366.723633
1910.427969	0.094969	1.000183	10465.586914
1911.452344	1.024263	0.923456	431.214569
1911.453242	1.523826	0.923456	1799.609985
1911.454334	1.514381	0.923456	3453.313965
1911.455293	1.472417	0.923456	4865.361816
1911.456165	1.434646	0.923456	6116.373047
1911.457198	1.392030	0.923456	7554.340332
1911.458226	1.351560	0.923456	8943.744141
1911.459123	0.775199	0.923456	9639.097656
1911.459988	0.104260	0.923456	9729.283203
1911.461044	0.094827	0.923456	9829.419922
1911.461996	0.094907	0.923456	9919.771484
1911.462872	0.094830	0.923456	10002.842773
1911.463800	0.094929	0.923456	10090.937500
1911.464854	0.094867	0.923456	10190.927734
1911.465733	0.094885	0.923456	10274.332031
1911.466590	0.094882	0.923456	10355.645508
1911.467640	0.094918	0.923456	10455.309570
1911.468592	0.094867	0.923456	10545.623047
1912.442053	1.040621	1.037828	453.710937
1912.442920	1.524423	1.037828	1775.385376
1912.444020	1.514740	1.037828	3441.599365
1912.445014	1.470549	1.037828	4903.325195
1912.445915	1.432313	1.037828	6193.839355
1912.446909	1.391327	1.037828	7576.818359
1912.447963	1.349952	1.037828	8999.667969
1912.448871	0.700521	1.037828	9635.741211
1912.449734	0.101367	1.037828	9723.220703
1912.450834	0.094962	1.037828	9827.678711
1912.451799	0.094852	1.037828	9919.210937
1912.452661	0.094962	1.037828	10001.068359
1912.453695	0.094999	1.037828	10099.296875
1912.454736	0.094907	1.037828	10198.095703
1912.455616	0.094900	1.037828	10281.607422
1912.456519	0.094991	1.037828	10367.384766
1912.457604	0.094922	1.037828	10470.375000
1912.458554	0.094904	1.037828	10560.533203
1913.478335	1.031217	0.923895	437.235992
1913.479258	1.525250	0.923895	1845.041870
1913.480222	1.519222	0.923895	3309.572266
1913.481156	1.478269	0.923895	4690.275391
1913.482036	1.439773	0.923895	5957.275391
1913.482989	1.399237	0.923895	7290.748047
1913.483955	1.360792	0.923895	8605.273437
1913.484886	1.054907	0.923895	9587.391602
1913.485753	0.141379	0.923895	9709.967773
1913.486718	0.094801	0.923895	9801.451172
1913.487651	0.094841	0.923895	9889.938477
1913.488514	0.094812	0.923895	9971.761719
1913.489456	0.094878	0.923895	10061.136719
1913.490373	0.094794	0.923895	10148.062500
1913.491289	0.094801	0.923895	10234.900391
1913.492159	0.094841	0.923895	10317.412109
1913.493135	0.094761	0.923895	10409.898437
1913.494083	0.094841	0.923895	10499.807617
1914.469855	1.061382	1.044475	489.297028
1914.470746	1.527982	1.044475	1850.729126
1914.471614	1.521581	1.044475	3171.461426
1914.472592	1.480023	1.044475	4618.924316
1914.473540	1.439224	1.044475	5983.308594
1914.474436	1.401313	1.044475	7238.885254
1914.475358	1.365267	1.044475	8497.662109
1914.476300	1.107817	1.044475	9541.225586
1914.477221	0.148535	1.044475	9678.026367
1914.478114	0.094680	1.044475	9762.576172
1914.479035	0.094764	1.044475	9849.854492
1914.479986	0.094823	1.044475	9940.031250
1914.480909	0.094827	1.044475	10027.556641
1914.481781	0.094871	1.044475	10110.284180
1914.482741	0.094856	1.044475	10201.345703
1914.483662	0.094764	1.044475	10288.624023
1914.484541	0.094841	1.044475	10371.989258
1914.485597	0.094860	1.044475	10472.161133
1915.509347	1.093381	0.890979	507.328918
1915.510264	1.530384	0.890979	1910.691406
1915.511162	1.520035	0.890979	3275.683105
1915.512074	1.479994	0.890979	4625.437500
1915.513034	1.438638	0.890979	6006.529785
1915.513967	1.399882	0.890979	7312.619141
1915.514834	1.364454	0.890979	8495.601562
1915.515803	1.109832	0.890979	9571.028320
1915.516758	0.146455	0.890979	9710.892578
1915.517644	0.094779	0.890979	9794.867187
1915.518509	0.094867	0.890979	9876.926758
1915.519458	0.094911	0.890979	9966.997070
1915.520411	0.094874	0.890979	10057.412109
1915.521302	0.094889	0.890979	10141.958008
1915.522213	0.094871	0.890979	10228.384766
1915.523172	0.094874	0.890979	10319.369141
1915.524073	0.094955	0.890979	10404.923828
1915.524990	0.094904	0.890979	10491.950195
1916.495839	1.057998	1.036144	486.679108
1916.496729	1.528235	1.036144	1846.808105
1916.497695	1.519200	1.036144	3314.355713
1916.498609	1.478687	1.036144	4665.875000
1916.499535	1.438623	1.036144	5998.040039
1916.500405	1.401727	1.036144	7217.542969
1916.501380	1.362631	1.036144	8546.107422
1916.502331	1.047103	1.036144	9541.902344
1916.503251	0.134879	1.036144	9665.991211
1916.504129	0.094750	1.036144	9749.181641
1916.505100	0.094867	1.036144	9841.297852
1916.506046	0.094856	1.036144	9931.031250
1916.506938	0.094856	1.036144	10015.642578
1916.507855	0.094878	1.036144	10102.645508
1916.508773	0.094849	1.036144	10189.716797
1916.509692	0.094885	1.036144	10276.916016
1916.510550	0.094852	1.036144	10358.298828
1916.511567	0.094856	1.036144	10454.767578
1917.537569	1.080813	0.983868	571.750061
1917.538464	1.531245	0.983868	1942.214355
1917.539367	1.517875	0.983868	3312.855225
1917.540256	1.478958	0.983868	4627.648437
1917.541220	1.436686	0.983868	6012.613281
1917.542152	1.398182	0.983868	7315.719238
1917.543040	1.363037	0.983868	8526.095703
1917.544028	1.027075	0.983868	9540.845703
1917.544944	0.126475	0.983868	9656.696289
1917.545865	0.094794	0.983868	9744.000977
1917.546747	0.094882	0.983868	9827.686523
1917.547704	0.094900	0.983868	9918.505859
1917.548646	0.094874	0.983868	10007.876953
1917.549533	0.094918	0.983868	10092.069336
1917.550414	0.094812	0.983868	10175.598633
1917.551410	0.094834	0.983868	10270.053711
1917.552331	0.094797	0.983868	10357.362305
1917.553223	0.094882	0.983868	10441.997070
1918.522040	1.023805	1.105685	428.974243
1918.522925	1.522925	1.105685	1776.762695
1918.524060	1.513330	1.105685	3494.392334
1918.524963	1.472952	1.105685	4824.467773
1918.525836	1.435448	1.105685	6077.613770
1918.526866	1.392561	1.105685	7511.951660
1918.527849	1.353977	1.105685	8842.911133
1918.528734	0.890559	1.105685	9631.055664
1918.529613	0.113679	1.105685	9730.979492
1918.530722	0.094827	1.105685	9836.142578
1918.531608	0.094801	1.105685	9920.136719
1918.532468	0.094871	1.105685	10001.725586
1918.533528	0.094852	1.105685	10102.268555
1918.534494	0.094860	1.105685	10193.903320
1918.535371	0.094834	1.105685	10277.072266
1918.536227	0.094867	1.105685	10358.278320
1918.537330	0.094940	1.105685	10462.997070
1918.538208	0.094819	1.105685	10546.248047
1919.568316	1.028599	0.965419	435.097229
1919.569263	1.524631	0.965419	1878.923096
1919.570320	1.513543	0.965419	3478.737549
1919.571261	1.472135	0.965419	4864.016602
1919.572133	1.434056	0.965419	6114.513672
1919.573192	1.390151	0.965419	7586.684082
1919.574210	1.350509	0.965419	8961.501953
1919.575112	0.748004	0.965419	9636.201172
1919.576079	0.102184	0.965419	9735.012695
1919.577125	0.094841	0.965419	9834.216797
1919.578040	0.094896	0.965419	9921.046875
1919.578906	0.094852	0.965419	10003.188477
1919.579976	0.095010	0.965419	10104.848633
1919.580972	0.094911	0.965419	10199.379883
1919.581871	0.094929	0.965419	10284.721680
1919.582733	0.094937	0.965419	10366.556641
1919.583831	0.094874	0.965419	10470.728516
1919.584733	0.094845	0.965419	10556.278320
1920.547644	1.028060	1.107453	434.869507
1920.548604	1.528572	1.107453	1902.298340
1920.549539	1.517252	1.107453	3320.929199
1920.550468	1.477401	1.107453	4693.434570
1920.551336	1.438605	1.107453	5942.143555
1920.552324	1.398256	1.107453	7323.620117
1920.553280	1.360781	1.107453	8624.527344
1920.554156	1.092942	1.107453	9581.944336
1920.555077	0.149070	1.107453	9719.237305
1920.556033	0.094830	1.107453	9809.895508
1920.556956	0.094823	1.107453	9897.416992
1920.557829	0.094904	1.107453	9980.267578
1920.558768	0.094845	1.107453	10069.327148
1920.559713	0.094860	1.107453	10158.969727
1920.560639	0.094904	1.107453	10246.850586
1920.561503	0.094819	1.107453	10328.774414
1920.562475	0.094918	1.107453	10421.035156
1920.563418	0.094911	1.107453	10510.536133
1921.596632	1.056017	1.005807	470.983490
1921.597501	1.526382	1.005807	1797.409302
1921.598496	1.519581	1.005807	3309.392578
1921.599408	1.477544	1.005807	4656.912598
1921.600336	1.438118	1.005807	5991.485840
1921.601214	1.400607	1.005807	7221.218750
1921.602191	1.362198	1.005807	8552.086914
1921.603143	1.058522	1.005807	9559.799805
1921.604046	0.135055	1.005807	9681.754883
1921.604959	0.094775	1.005807	9768.285156
1921.605924	0.094896	1.005807	9859.860352
1921.606848	0.094794	1.005807	9947.450195
1921.607713	0.094885	1.005807	10029.526367
1921.608646	0.094852	1.005807	10118.023437
1921.609593	0.094885	1.005807	10207.879883
1921.610502	0.094980	1.005807	10294.216797
1921.611378	0.094926	1.005807	10377.371094
1921.612325	0.094882	1.005807	10467.223633
1922.579544	1.069717	1.117190	477.093689
1922.580415	1.525975	1.117190	1806.218262
1922.581400	1.518175	1.117190	3301.620605
1922.582328	1.477837	1.117190	4673.053223
1922.583208	1.439597	1.117190	5939.898437
1922.584122	1.401204	1.117190	7220.598633
1922.585087	1.362766	1.117190	8535.667969
1922.586013	1.107422	1.117190	9561.140625
1922.586891	0.155563	1.117190	9697.724609
1922.587819	0.094753	1.117190	9785.656250
1922.588774	0.094911	1.117190	9876.295898
1922.589709	0.094882	1.117190	9965.009766
1922.590574	0.094882	1.117190	10047.082031
1922.591545	0.094856	1.117190	10139.187500
1922.592494	0.094867	1.117190	10229.215820
1922.593388	0.094893	1.117190	10314.049805
1922.594315	0.094841	1.117190	10401.967773
1922.595216	0.094893	1.117190	10487.465820
1923.621970	1.069395	1.017001	482.296967
1923.622862	1.528601	1.017001	1845.809082
1923.623816	1.519047	1.017001	3294.979492
1923.624752	1.477760	1.017001	4678.163086
1923.625678	1.438165	1.017001	6009.904297
1923.626548	1.401167	1.017001	7228.919922
1923.627549	1.362352	1.017001	8592.634766
1923.628482	1.069570	1.017001	9590.543945
1923.629363	0.143031	1.017001	9716.554687
1923.630268	0.094823	1.017001	9802.369141
1923.631197	0.094819	1.017001	9890.456055
1923.632150	0.094871	1.017001	9980.868164
1923.633043	0.094863	1.017001	10065.581055
1923.633953	0.094863	1.017001	10151.906250
1923.634907	0.094834	1.017001	10242.377930
1923.635829	0.094882	1.017001	10329.858398
1923.636694	0.094878	1.017001	10411.927734
1923.637657	0.094863	1.017001	10503.281250
1924.612791	1.046503	1.105770	438.484650
1924.613833	1.533102	1.105770	2035.976685
1924.614727	1.516003	1.105770	3391.283691
1924.615611	1.477632	1.105770	4697.510254
1924.616627	1.434624	1.105770	6155.087891
1924.617550	1.394865	1.105770	7442.547852
1924.618473	1.358657	1.105770	8696.588867
1924.619340	1.008435	1.105770	9570.902344
1924.620390	0.111727	1.105770	9688.215820
1924.621270	0.094944	1.105770	9771.766602
1924.622138	0.094933	1.105770	9854.167969
1924.623102	0.094926	1.105770	9945.675781
1924.624048	0.094867	1.105770	10035.419922
1924.624960	0.094973	1.105770	10122.035156
1924.625836	0.094973	1.105770	10205.231445
1924.626854	0.094988	1.105770	10301.928711
1924.627754	0.094962	1.105770	10387.394531
1924.628632	0.094948	1.105770	10470.758789
1925.642944	1.032707	0.890198	439.933380
1925.643863	1.524983	0.890198	1841.392700
1925.644812	1.519145	0.890198	3283.061768
1925.645757	1.477844	0.890198	4679.624512
1925.646659	1.439095	0.890198	5977.688477
1925.647596	1.399830	0.890198	7289.329590
1925.648557	1.361902	0.890198	8598.117187
1925.649481	1.071621	0.890198	9588.294922
1925.650349	0.146565	0.890198	9715.513672
1925.651327	0.094838	0.890198	9808.264648
1925.652225	0.094900	0.890198	9893.484375
1925.653119	0.095002	0.890198	9978.416992
1925.654158	0.094948	0.890198	10077.067383
1925.655109	0.094911	0.890198	10167.328125
1925.656038	0.094937	0.890198	10255.524414
1925.656902	0.094969	0.890198	10337.578125
1925.657872	0.094907	0.890198	10429.637695
1925.658817	0.094929	0.890198	10519.345703
1926.647771	1.065238	0.971308	487.879059
1926.648670	1.528916	0.971308	1862.374512
1926.649547	1.521530	0.971308	3196.755859
1926.650468	1.481785	0.971308	4561.479492
1926.651429	1.440242	0.971308	5945.551758
1926.652361	1.401255	0.971308	7251.521484
1926.653229	1.366007	0.971308	8437.215820
1926.654193	1.143688	0.971308	9539.730469
1926.655112	0.155958	0.971308	9683.055664
1926.656005	0.094878	0.971308	9767.781250
1926.657024	0.094958	0.971308	9864.543945
1926.657967	0.094944	0.971308	9954.076172
1926.658889	0.095043	0.971308	10041.705078
1926.659752	0.094999	0.971308	10123.689453
1926.660723	0.094980	0.971308	10215.915039
1926.661670	0.094933	0.971308	10305.816406
1926.662565	0.094977	0.971308	10390.820312
1926.663467	0.094955	0.971308	10476.469727
1927.652904	1.115208	1.027580	595.520813
1927.653824	1.532666	1.027580	2005.573730
1927.654760	1.515198	1.027580	3423.798828
1927.655636	1.475903	1.027580	4716.690430
1927.656671	1.432236	1.027580	6199.055176
1927.657571	1.394367	1.027580	7453.984863
1927.658496	1.357969	1.027580	8710.105469
1927.659370	1.010156	1.027580	9592.982422
1927.660370	0.118506	1.027580	9711.488281
1927.661296	0.094786	1.027580	9799.260742
1927.662159	0.094871	1.027580	9881.133789
1927.663210	0.094926	1.027580	9980.900391
1927.664086	0.094823	1.027580	10063.964844
1927.664998	0.094867	1.027580	10150.483398
1927.665876	0.094867	1.027580	10233.776367
1927.666840	0.094889	1.027580	10325.249023
1927.667807	0.094904	1.027580	10417.020508
1927.668702	0.094863	1.027580	10501.922852
1928.686390	1.130270	0.817249	606.954834
1928.687278	1.532677	0.817249	1967.971924
1928.688208	1.517530	0.817249	3379.275391
1928.689074	1.478749	0.817249	4659.872070
1928.690046	1.436221	0.817249	6055.878906
1928.690976	1.397498	0.817249	7355.551758
1928.691875	1.361960	0.817249	8579.954102
1928.692855	1.000913	0.817249	9560.848633
1928.693786	0.121780	0.817249	9674.225586
1928.694709	0.094808	0.817249	9761.733398
1928.695586	0.094929	0.817249	9844.986328
1928.696535	0.094937	0.817249	9935.081055
1928.697472	0.094951	0.817249	10024.050781
1928.698362	0.094937	0.817249	10108.543945
1928.699246	0.095021	0.817249	10192.541992
1928.700235	0.094988	0.817249	10286.485352
1928.701159	0.094889	0.817249	10374.163086
1928.702049	0.094940	0.817249	10458.660156
1929.671919	1.059679	1.173208	505.466827
1929.672997	1.533252	1.173208	2158.312500
1929.673870	1.513132	1.173208	3479.276855
1929.674742	1.474676	1.173208	4765.194824
1929.675777	1.430185	1.173208	6245.436523
1929.676752	1.390170	1.173208	7600.852051
1929.677629	1.355361	1.173208	8789.503906
1929.678516	0.884839	1.173208	9574.356445
1929.679625	0.101191	1.173208	9686.578125
1929.680518	0.094948	1.173208	9771.366211
1929.681382	0.094915	1.173208	9853.372070
1929.682413	0.095017	1.173208	9951.334961
1929.683406	0.094973	1.173208	10045.643555
1929.684289	0.094984	1.173208	10129.514648
1929.685161	0.094973	1.173208	10212.331055
1929.686252	0.094933	1.173208	10315.902344
1929.687144	0.094940	1.173208	10400.588867
1929.688017	0.094911	1.173208	10483.446289
1930.713305	1.048099	0.847755	461.163727
1930.714184	1.526616	0.847755	1803.059326
1930.715062	1.522936	0.847755	3140.196777
1930.715932	1.483528	0.847755	4430.866211
1930.716929	1.441611	0.847755	5868.152832
1930.717876	1.402233	0.847755	7196.067383
1930.718773	1.366084	0.847755	8421.444336
1930.719689	1.187714	0.847755	9509.389648
1930.720664	0.167087	0.847755	9672.299805
1930.721555	0.094845	0.847755	9756.806641
1930.722441	0.095024	0.847755	9840.998047
1930.723462	0.094889	0.847755	9937.879883
1930.724385	0.094933	0.847755	10025.502930
1930.725266	0.094937	0.847755	10109.141602
1930.726213	0.094926	0.847755	10199.036133
1930.727108	0.094969	0.847755	10284.034180
1930.728053	0.094904	0.847755	10373.717773
1930.728942	0.094937	0.847755	10458.116211
1931.704059	1.060565	1.154464	501.647308
1931.704950	1.527656	1.154464	1862.789062
1931.705818	1.520709	1.154464	3182.764648
1931.706744	1.479862	1.154464	4553.117187
1931.707703	1.438418	1.154464	5932.560059
1931.708634	1.400248	1.154464	7236.190918
1931.709510	1.364524	1.154464	8431.513672
1931.710493	1.110026	1.154464	9522.668945
1931.711452	0.143705	1.154464	9660.481445
1931.712349	0.094863	1.154464	9745.574219
1931.713239	0.094962	1.154464	9830.090820
1931.714182	0.094911	1.154464	9919.591797
1931.715132	0.094871	1.154464	10009.718750
1931.716010	0.094988	1.154464	10093.118164
1931.716951	0.094896	1.154464	10182.415039
1931.717879	0.094878	1.154464	10270.461914
1931.718803	0.094951	1.154464	10358.197266
1931.719681	0.094944	1.154464	10441.557617
1932.733505	1.044869	0.872135	451.383606
1932.734384	1.525990	0.872135	1792.728760
1932.735406	1.517838	0.872135	3343.959473
1932.736385	1.473783	0.872135	4786.792969
1932.737326	1.434247	0.872135	6136.419434
1932.738190	1.396663	0.872135	7343.135742
1932.739274	1.355867	0.872135	8812.895508
1932.740173	0.913070	0.872135	9633.745117
1932.741030	0.116371	0.872135	9733.474609
1932.742101	0.094948	0.872135	9835.163086
1932.743063	0.094889	0.872135	9926.446289
1932.743936	0.094834	0.872135	10009.236328
1932.744797	0.094878	0.872135	10090.925781
1932.745895	0.094893	0.872135	10195.118164
1932.746801	0.094922	0.872135	10281.117187
1932.747680	0.094863	0.872135	10364.501953
1932.748675	0.095002	0.872135	10459.029297
1932.749668	0.094860	0.872135	10553.224609
1933.741762	1.039779	0.973669	449.184570
1933.742630	1.524800	0.973669	1772.710815
1933.743616	1.519138	0.973669	3270.581055
1933.744556	1.478020	0.973669	4659.919922
1933.745443	1.439231	0.973669	5936.517578
1933.746418	1.399248	0.973669	7300.784668
1933.747360	1.361038	0.973669	8582.881836
1933.748283	1.079297	0.973669	9579.073242
1933.749150	0.147916	0.973669	9707.316406
1933.750135	0.094724	0.973669	9800.620117
1933.751083	0.094977	0.973669	9890.658203
1933.751971	0.094933	0.973669	9974.958984
1933.752877	0.094915	0.973669	10060.951172
1933.753807	0.094969	0.973669	10149.272461
1933.754746	0.094940	0.973669	10238.420898
1933.755641	0.094911	0.973669	10323.366211
1933.756549	0.094940	0.973669	10409.572266
1933.757503	0.094922	0.973669	10500.127930
1934.751710	1.082117	0.857294	498.855804
1934.752595	1.528590	0.857294	1851.658081
1934.753459	1.521277	0.857294	3166.041260
1934.754450	1.479459	0.857294	4632.185547
1934.755402	1.438513	0.857294	6001.649902
1934.756300	1.400724	0.857294	7259.500000
1934.757219	1.364407	0.857294	8513.389648
1934.758186	1.092953	0.857294	9570.275391
1934.759121	0.142654	0.857294	9703.656250
1934.759986	0.094874	0.857294	9785.722656
1934.760945	0.094882	0.857294	9876.713867
1934.761861	0.094937	0.857294	9963.675781
1934.762783	0.094948	0.857294	10051.217773
1934.763656	0.094915	0.857294	10134.078125
1934.764748	0.094969	0.857294	10237.785156
1934.765793	0.094988	0.857294	10337.047852
1934.766686	0.094973	0.857294	10421.858398
1934.767580	0.095039	0.857294	10506.823242
1935.783096	1.030942	0.779399	432.995819
1935.784082	1.528960	0.779399	1940.550293
1935.784996	1.518281	0.779399	3328.259277
1935.785879	1.479155	0.779399	4634.353516
1935.786757	1.440205	0.779399	5898.853516
1935.787732	1.399863	0.779399	7263.720215
1935.788687	1.362367	0.779399	8564.780273
1935.789591	1.120188	0.779399	9577.430664
1935.790513	0.153911	0.779399	9719.336914
1935.791458	0.094819	0.779399	9808.941406
1935.792385	0.094940	0.779399	9896.951172
1935.793248	0.094951	0.779399	9978.893555
1935.794214	0.094933	0.779399	10070.598633
1935.795128	0.094812	0.779399	10157.256836
1935.796031	0.094911	0.779399	10242.960937
1935.796909	0.094915	0.779399	10326.295898
1935.797879	0.094948	0.779399	10418.394531
1935.798821	0.094904	0.779399	10507.793945
1936.769987	1.034842	0.912374	441.877747
1936.770976	1.525247	0.912374	1950.346436
1936.772029	1.511924	0.912374	3542.402344
1936.772948	1.471263	0.912374	4894.493164
1936.773812	1.433049	0.912374	6132.647949
1936.774899	1.389342	0.912374	7642.862793
1936.775904	1.349531	0.912374	8999.141602
1936.776794	0.728060	0.912374	9647.115234
1936.777780	0.101144	0.912374	9746.842773
1936.778845	0.094984	0.912374	9848.000977
1936.779729	0.094977	0.912374	9931.960937
1936.780596	0.094958	0.912374	10014.290039
1936.781701	0.095017	0.912374	10119.284180
1936.782678	0.094980	0.912374	10212.080078
1936.783547	0.094948	0.912374	10294.589844
1936.784595	0.095090	0.912374	10394.244141
1936.785637	0.095013	0.912374	10493.248047
1936.786532	0.094951	0.912374	10578.229492
1937.814475	1.046532	0.768700	460.474030
1937.815358	1.527839	0.768700	1809.556152
1937.816274	1.521603	0.768700	3203.344238
1937.817245	1.479756	0.768700	4640.187500
1937.818176	1.439084	0.768700	5979.975098
1937.819049	1.402288	0.768700	7204.171875
1937.820004	1.364612	0.768700	8507.375977
1937.820916	1.102299	0.768700	9512.671875
1937.821846	0.151820	0.768700	9653.864258
1937.822720	0.094882	0.768700	9736.791016
1937.823699	0.094922	0.768700	9829.719727
1937.824646	0.094962	0.768700	9919.648437
1937.825543	0.094940	0.768700	10004.809570
1937.826446	0.094969	0.768700	10090.567383
1937.827382	0.094955	0.768700	10179.445312
1937.828325	0.094911	0.768700	10268.946289
1937.829211	0.094962	0.768700	10353.083008
1937.830148	0.094944	0.768700	10442.044922
1938.796732	1.026724	0.984726	435.330811
1938.797773	1.529835	0.984726	2027.889282
1938.798814	1.510613	0.984726	3600.437012
1938.799696	1.471047	0.984726	4897.900879
1938.800621	1.431163	0.984726	6221.727051
1938.801691	1.387086	0.984726	7705.909180
1938.802634	1.350103	0.984726	8979.055664
1938.803509	0.766630	0.984726	9649.856445
1938.804541	0.099075	0.984726	9752.101562
1938.805549	0.094951	0.984726	9847.812500
1938.806447	0.095013	0.984726	9933.134766
1938.807311	0.094958	0.984726	10015.178711
1938.808372	0.095076	0.984726	10116.053711
1938.809317	0.094951	0.984726	10205.782227
1938.810197	0.094999	0.984726	10289.380859
1938.811148	0.094995	0.984726	10379.721680
1938.812166	0.094977	0.984726	10476.408203
1938.813045	0.094907	0.984726	10559.832031
1939.837043	1.077272	0.792330	509.549500
1939.837929	1.529268	0.792330	1864.480469
1939.838789	1.521456	0.792330	3172.932861
1939.839748	1.480254	0.792330	4592.496094
1939.840717	1.438480	0.792330	5986.383301
1939.841612	1.400848	0.792330	7240.142578
1939.842519	1.364802	0.792330	8478.018555
1939.843473	1.105690	0.792330	9532.846680
1939.844422	0.139047	0.792330	9664.801758
1939.845315	0.094882	0.792330	9749.531250
1939.846235	0.094955	0.792330	9836.889648
1939.847188	0.094937	0.792330	9927.364258
1939.848109	0.094973	0.792330	10014.834961
1939.848970	0.094944	0.792330	10096.582031
1939.849939	0.094874	0.792330	10188.515625
1939.850844	0.095006	0.792330	10274.496094
1939.851764	0.095035	0.792330	10361.928711
1939.852638	0.094962	0.792330	10444.925781
1940.830588	1.093949	0.967497	522.907593
1940.831514	1.531161	0.967497	1940.762573
1940.832407	1.518420	0.967497	3296.711914
1940.833330	1.478328	0.967497	4661.208496
1940.834287	1.437129	0.967497	6036.541016
1940.835215	1.398461	0.967497	7334.312500
1940.836096	1.363011	0.967497	8535.125977
1940.837182	0.911221	0.967497	9524.711914
1940.838229	0.104546	0.967497	9634.171875
1940.839170	0.094933	0.967497	9723.503906
1940.840031	0.094915	0.967497	9805.225586
1940.841095	0.095065	0.967497	9906.374023
1940.842081	0.094973	0.967497	10000.017578
1940.842966	0.094973	0.967497	10084.068359
1940.843955	0.095035	0.967497	10178.058594
1940.845000	0.094973	0.967497	10277.305664
1940.845915	0.094926	0.967497	10364.162109
1940.846774	0.094929	0.967497	10445.706055
1941.855324	1.074273	0.828270	490.942535
1941.856209	1.528352	0.828270	1843.534058
1941.857193	1.518058	0.828270	3337.302979
1941.858249	1.471802	0.828270	4891.525391
1941.859168	1.431899	0.828270	6207.440918
1941.860040	1.394410	0.828270	7423.366699
1941.861146	1.352021	0.828270	8918.702148
1941.862138	0.671613	0.828270	9584.941406
1941.863019	0.100140	0.828270	9673.165039
1941.864017	0.094999	0.828270	9767.973633
1941.865071	0.094944	0.828270	9868.044922
1941.865953	0.095043	0.828270	9951.873047
1941.866818	0.095035	0.828270	10034.079102
1941.867922	0.095079	0.828270	10139.046875
1941.868882	0.094973	0.828270	10230.220703
1941.869739	0.094944	0.828270	10311.587891
1941.870778	0.095057	0.828270	10410.352539
1941.871807	0.095002	0.828270	10508.110352
1942.865888	1.080381	0.889815	489.412567
1942.866819	1.529773	0.889815	1913.631104
1942.867748	1.518230	0.889815	3324.066895
1942.868612	1.479309	0.889815	4602.189941
1942.869570	1.438249	0.889815	5980.033203
1942.870525	1.398831	0.889815	7315.916504
1942.871422	1.363026	0.889815	8538.550781
1942.872338	1.121411	0.889815	9565.763672
1942.873300	0.139962	0.889815	9700.407227
1942.874218	0.094874	0.889815	9787.501953
1942.875108	0.094933	0.889815	9871.992187
1942.876033	0.094995	0.889815	9959.862305
1942.876983	0.094988	0.889815	10050.100586
1942.877907	0.094999	0.889815	10137.879883
1942.878762	0.095006	0.889815	10219.110352
1942.879717	0.095006	0.889815	10309.840820
1942.880669	0.094995	0.889815	10400.276367
1942.881561	0.094969	0.889815	10484.989258
1943.872837	1.030441	0.906859	445.150391
1943.873700	1.524650	0.906859	1760.922974
1943.874737	1.518201	0.906859	3335.296875
1943.875645	1.477401	0.906859	4676.777344
1943.876553	1.438004	0.906859	5982.485352
1943.877440	1.399849	0.906859	7224.151367
1943.878474	1.359800	0.906859	8630.184570
1943.879369	1.053142	0.906859	9572.747070
1943.880256	0.138838	0.906859	9695.896484
1943.881233	0.094944	0.906859	9788.656250
1943.882179	0.094955	0.906859	9878.483398
1943.883095	0.094984	0.906859	9965.489258
1943.883957	0.094991	0.906859	10047.372070
1943.884997	0.094962	0.906859	10146.132812
1943.885876	0.095024	0.906859	10229.659180
1943.886750	0.095021	0.906859	10312.707031
1943.887698	0.095006	0.906859	10402.772461
1943.888668	0.094977	0.906859	10494.900391
1944.900052	1.069728	0.792930	473.889404
1944.900980	1.529960	0.792930	1893.692017
1944.901853	1.520259	0.792930	3220.877930
1944.902846	1.478163	0.792930	4688.693359
1944.903804	1.437257	0.792930	6065.585449
1944.904700	1.399373	0.792930	7319.423340
1944.905612	1.363055	0.792930	8562.529297
1944.906554	1.049180	0.792930	9550.856445
1944.907480	0.135802	0.792930	9676.609375
1944.908343	0.094900	0.792930	9758.507812
1944.909324	0.094995	0.792930	9851.698242
1944.910271	0.094962	0.792930	9941.626953
1944.911160	0.094991	0.792930	10026.074219
1944.912073	0.095021	0.792930	10112.828125
1944.913034	0.094980	0.792930	10204.104492
1944.913957	0.095010	0.792930	10291.798828
1944.914823	0.094984	0.792930	10374.054687
1944.915764	0.094999	0.792930	10463.448242
1945.894902	1.089485	0.954297	510.968445
1945.895791	1.528769	0.954297	1870.044434
1945.896668	1.520918	0.954297	3203.889648
1945.897664	1.478657	0.954297	4676.632324
1945.898606	1.436895	0.954297	6030.187012
1945.899539	1.398384	0.954297	7334.878906
1945.900403	1.362942	0.954297	8512.460937
1945.901427	1.000968	0.954297	9537.452148
1945.902330	0.127449	0.954297	9652.538086
1945.903210	0.094805	0.954297	9735.965820
1945.904148	0.094977	0.954297	9825.053711
1945.905129	0.094922	0.954297	9918.171875
1945.906039	0.094966	0.954297	10004.590820
1945.906912	0.094933	0.954297	10087.466797
1945.907997	0.095021	0.954297	10190.564453
1945.908885	0.094955	0.954297	10274.884766
1945.909761	0.094915	0.954297	10358.030273
1945.910639	0.095002	0.954297	10441.442383
1946.930961	1.103042	0.772571	550.417969
1946.931893	1.532959	0.772571	1979.135742
1946.932768	1.518706	0.772571	3308.003418
1946.933744	1.476830	0.772571	4749.389160
1946.934759	1.432753	0.772571	6203.633301
1946.935654	1.395190	0.772571	7452.328613
1946.936513	1.360265	0.772571	8620.795898
1946.937583	0.862416	0.772571	9543.581055
1946.938500	0.106238	0.772571	9641.000977
1946.939380	0.094926	0.772571	9724.535156
1946.940347	0.095050	0.772571	9816.448242
1946.941375	0.094900	0.772571	9914.004883
1946.942270	0.094958	0.772571	9998.993164
1946.943137	0.094988	0.772571	10081.347656
1946.944187	0.095010	0.772571	10181.107422
1946.945138	0.094977	0.772571	10271.430664
1946.946015	0.095090	0.772571	10354.825195
1946.946948	0.095054	0.772571	10443.510742
1947.919547	1.047235	0.987599	446.122162
1947.920661	1.532593	0.987599	2153.430420
1947.921627	1.510181	0.987599	3612.265137
1947.922496	1.471619	0.987599	4891.101562
1947.923541	1.427058	0.987599	6382.377441
1947.924590	1.383999	0.987599	7834.192383
1947.925477	1.348949	0.987599	9030.709961
1947.926439	0.660300	0.987599	9665.918945
1947.927485	0.096606	0.987599	9766.969727
1947.928410	0.094896	0.987599	9854.749023
1947.929281	0.094973	0.987599	9937.470703
1947.930242	0.095054	0.987599	10028.817383
1947.931278	0.095028	0.987599	10127.266602
1947.932169	0.095010	0.987599	10211.919922
1947.933036	0.095083	0.987599	10294.356445
1947.934092	0.095035	0.987599	10394.713867
1947.935026	0.095006	0.987599	10483.449219
1947.935909	0.095061	0.987599	10567.387695
1948.958322	1.070764	0.755439	501.117645
1948.959213	1.529824	0.755439	1864.191040
1948.960095	1.520753	0.755439	3205.495361
1948.961042	1.481034	0.755439	4608.034180
1948.961972	1.438623	0.755439	5945.953613
1948.962912	1.400131	0.755439	7262.076172
1948.963785	1.363828	0.755439	8452.698242
1948.964843	1.030393	0.755439	9542.854492
1948.965773	0.127511	0.755439	9661.439453
1948.966648	0.094926	0.755439	9744.499023
1948.967505	0.094944	0.755439	9825.866211
1948.968498	0.094958	0.755439	9920.160156
1948.969435	0.094951	0.755439	10009.129883
1948.970328	0.094995	0.755439	10093.960937
1948.971239	0.095032	0.755439	10180.535156
1948.972193	0.094984	0.755439	10271.150391
1948.973081	0.095006	0.755439	10355.515625
1948.973945	0.094984	0.755439	10437.582031
1949.946607	1.070731	0.984783	500.031494
1949.947498	1.528740	0.984783	1862.139038
1949.948424	1.519468	0.984783	3269.166016
1949.949369	1.477819	0.984783	4665.704590
1949.950290	1.437235	0.984783	5989.398437
1949.951188	1.400197	0.984783	7246.774902
1949.952108	1.363147	0.984783	8500.870117
1949.953076	1.073474	0.984783	9539.993164
1949.954006	0.136586	0.984783	9667.017578
1949.954877	0.094816	0.984783	9749.601562
1949.955853	0.094977	0.984783	9842.298828
1949.956772	0.094955	0.984783	9929.562500
1949.957689	0.095043	0.984783	10016.716797
1949.958549	0.094915	0.984783	10098.343750
1949.959522	0.094999	0.984783	10190.777344
1949.960467	0.094915	0.984783	10280.471680
1949.961338	0.094999	0.984783	10363.215820
1949.962251	0.094900	0.984783	10449.859375
1950.985321	1.098435	0.773175	516.264465
1950.986253	1.531487	0.773175	1943.610107
1950.987180	1.517512	0.773175	3350.343750
1950.988065	1.478785	0.773175	4659.068848
1950.988980	1.439180	0.773175	5975.918457
1950.989947	1.399036	0.773175	7328.786133
1950.990879	1.361997	0.773175	8598.166992
1950.991747	1.122213	0.773175	9572.248047
1950.992729	0.147686	0.773175	9717.275391
1950.993645	0.094863	0.773175	9804.169922
1950.994538	0.094991	0.773175	9888.997070
1950.995409	0.094900	0.773175	9971.655273
1950.996388	0.094999	0.773175	10064.659180
1950.997318	0.095010	0.773175	10153.018555
1950.998180	0.095043	0.773175	10234.945312
1950.999146	0.094951	0.773175	10326.667969
1951.000098	0.095072	0.773175	10417.176758
1951.000989	0.095065	0.773175	10501.879883
1951.974140	1.092246	0.981198	533.016113
1951.975030	1.529982	0.981198	1894.699707
1951.975974	1.517439	0.981198	3327.162109
1951.977034	1.470795	0.981198	4886.204590
1951.977980	1.430354	0.981198	6239.319336
1951.978858	1.393638	0.981198	7462.933105
1951.979917	1.352230	0.981198	8894.945312
1951.980948	0.638932	0.981198	9553.683594
1951.981837	0.098727	0.981198	9641.452148
1951.982790	0.095043	0.981198	9732.028320
1951.983841	0.094984	0.981198	9831.856445
1951.984761	0.094973	0.981198	9919.231445
1951.985623	0.094889	0.981198	10001.025391
1951.986669	0.095046	0.981198	10100.444336
1951.987672	0.094944	0.981198	10195.672852
1951.988556	0.094948	0.981198	10279.606445
1951.989412	0.094977	0.981198	10360.906250
1951.990494	0.095010	0.981198	10463.707031
1953.011565	1.051930	0.764220	488.095490
1953.012449	1.528451	0.764220	1839.245972
1953.013328	1.521442	0.764220	3176.593262
1953.014298	1.478412	0.764220	4610.652832
1953.015257	1.437294	0.764220	5989.017578
1953.016193	1.398827	0.764220	7298.319336
1953.017060	1.363425	0.764220	8480.409180
1953.018035	1.080674	0.764220	9534.066406
1953.018993	0.133586	0.764220	9662.041992
1953.019890	0.094860	0.764220	9747.130859
1953.020801	0.094889	0.764220	9833.574219
1953.021733	0.094980	0.764220	9922.095703
1953.022656	0.094951	0.764220	10009.735352
1953.023512	0.095021	0.764220	10091.073242
1953.024501	0.095010	0.764220	10185.038086
1953.025422	0.094966	0.764220	10272.501953
1953.026311	0.095006	0.764220	10356.961914
1953.027238	0.095032	0.764220	10445.056641
1954.002430	1.104287	0.964798	531.162109
1954.003318	1.529356	0.964798	1889.229858
1954.004181	1.520087	0.964798	3201.064453
1954.005137	1.478910	0.964798	4614.902344
1954.006088	1.438092	0.964798	5982.527832
1954.006989	1.400632	0.964798	7244.497559
1954.007906	1.364410	0.964798	8495.662109
1954.008863	1.111622	0.964798	9559.484375
1954.009807	0.138845	0.964798	9690.554687
1954.010682	0.094929	0.964798	9773.618164
1954.011674	0.095035	0.964798	9867.893555
1954.012607	0.095006	0.964798	9956.534180
1954.013532	0.095072	0.964798	10044.475586
1954.014393	0.095035	0.964798	10126.300781
1954.015363	0.095010	0.964798	10218.459961
1954.016300	0.095050	0.964798	10307.521484
1954.017182	0.095050	0.964798	10391.355469
1954.018102	0.095021	0.964798	10478.774414
1955.037877	1.039428	0.803605	435.520142
1955.038859	1.530879	0.803605	1938.843262
1955.039792	1.517267	0.803605	3354.453125
1955.040672	1.478635	0.803605	4655.652344
1955.041593	1.438755	0.803605	5980.745605
1955.042556	1.399076	0.803605	7328.055664
1955.043487	1.361920	0.803605	8596.003906
1955.044359	1.125948	0.803605	9577.831055
1955.045333	0.146671	0.803605	9720.688477
1955.046236	0.094849	0.803605	9806.336914
1955.047131	0.095021	0.803605	9891.380859
1955.048107	0.094973	0.803605	9984.074219
1955.049062	0.094991	0.803605	10074.791016
1955.049989	0.095032	0.803605	10162.885742
1955.050852	0.094977	0.803605	10244.850586
1955.051823	0.095013	0.803605	10337.108398
1955.052764	0.094944	0.803605	10426.450195
1955.053659	0.095054	0.803605	10511.523437
1956.029767	1.048092	0.952447	456.968170
1956.030645	1.526049	0.952447	1796.838867
1956.031569	1.520585	0.952447	3201.859131
1956.032531	1.479097	0.952447	4624.750000
1956.033462	1.439114	0.952447	5964.564941
1956.034333	1.401940	0.952447	7185.654297
1956.035319	1.363905	0.952447	8530.464844
1956.036264	1.087372	0.952447	9558.031250
1956.037176	0.146188	0.952447	9691.354492
1956.038039	0.094878	0.952447	9773.234375
1956.039000	0.094955	0.952447	9864.486328
1956.039948	0.095006	0.952447	9954.551758
1956.040841	0.094977	0.952447	10039.366211
1956.041757	0.094991	0.952447	10126.377930
1956.042706	0.094962	0.952447	10216.497070
1956.043630	0.094955	0.952447	10304.235352
1956.044519	0.094948	0.952447	10388.643555
1956.045516	0.095072	0.952447	10483.430664
1957.064516	1.035993	0.763475	446.512756
1957.065460	1.525151	0.763475	1886.255615
1957.066540	1.512726	0.763475	3519.999512
1957.067469	1.471743	0.763475	4887.249023
1957.068333	1.433665	0.763475	6125.935059
1957.069379	1.390514	0.763475	7580.412598
1957.070403	1.350326	0.763475	8963.146484
1957.071304	0.745034	0.763475	9634.421875
1957.072269	0.102473	0.763475	9733.308594
1957.073316	0.095002	0.763475	9832.776367
1957.074235	0.094999	0.763475	9920.080078
1957.075106	0.095006	0.763475	10002.830078
1957.076173	0.094988	0.763475	10104.181641
1957.077168	0.094940	0.763475	10198.647461
1957.078060	0.094937	0.763475	10283.331055
1957.079031	0.095061	0.763475	10375.635742
1957.080092	0.094988	0.763475	10476.417969
1957.081003	0.094973	0.763475	10562.938477
1958.058352	1.100230	0.871700	517.107849
1958.059297	1.530549	0.871700	1963.476807
1958.060229	1.516897	0.871700	3377.224609
1958.061091	1.477749	0.871700	4651.043945
1958.062050	1.436594	0.871700	6028.737793
1958.063013	1.397128	0.871700	7374.171875
1958.063914	1.361184	0.871700	8600.598633
1958.064830	1.070669	0.871700	9581.331055
1958.065786	0.129646	0.871700	9705.272461
1958.066705	0.094911	0.871700	9792.495117
1958.067596	0.094969	0.871700	9877.113281
1958.068605	0.095068	0.871700	9973.037109
1958.069643	0.095094	0.871700	10071.745117
1958.070590	0.095013	0.871700	10161.722656
1958.071451	0.095028	0.871700	10243.541992
1958.072493	0.095164	0.871700	10342.702148
1958.073530	0.094940	0.871700	10441.155273
1958.074408	0.094977	0.871700	10524.544922
1959.089925	1.093341	0.717028	544.483887
1959.090817	1.531395	0.717028	1910.488525
1959.091695	1.520211	0.717028	3245.233887
1959.092696	1.476771	0.717028	4723.481934
1959.093693	1.433361	0.717028	6152.542480
1959.094595	1.395941	0.717028	7411.681641
1959.095459	1.359928	0.717028	8586.659180
1959.096580	0.833339	0.717028	9520.832031
1959.097474	0.106318	0.717028	9615.880859
1959.098340	0.094900	0.717028	9698.064453
1959.099358	0.094999	0.717028	9794.773437
1959.100355	0.094966	0.717028	9889.454102
1959.101230	0.095010	0.717028	9972.587891
1959.102095	0.095032	0.717028	10054.790039
1959.103177	0.095054	0.717028	10157.637695
1959.104087	0.095024	0.717028	10244.110352
1959.104963	0.095002	0.717028	10327.332031
1959.105950	0.095072	0.717028	10421.167969
1960.087402	1.092989	0.825725	496.217194
1960.088337	1.530502	0.825725	1927.236328
1960.089214	1.519764	0.825725	3260.069824
1960.090163	1.478602	0.825725	4663.263672
1960.091114	1.437543	0.825725	6030.366699
1960.092041	1.399003	0.825725	7327.242187
1960.092907	1.363553	0.825725	8508.079102
1960.093865	1.093879	0.825725	9556.015625
1960.094816	0.140812	0.825725	9689.927734
1960.095708	0.094933	0.825725	9774.607422
1960.096581	0.094929	0.825725	9857.480469
1960.097556	0.094980	0.825725	9950.085937
1960.098502	0.094948	0.825725	10039.906250
1960.099395	0.094999	0.825725	10124.740234
1960.100323	0.095065	0.825725	10212.959961
1960.101275	0.095021	0.825725	10303.419922
1960.102202	0.095010	0.825725	10391.494141
1960.103060	0.094937	0.825725	10472.949219
1961.111367	1.046041	0.673498	453.981903
1961.112244	1.526363	0.673498	1792.602661
1961.113241	1.519596	0.673498	3307.639893
1961.114175	1.477983	0.673498	4688.076172
1961.115103	1.438004	0.673498	6022.543945
1961.115969	1.401035	0.673498	7235.840332
1961.116907	1.362718	0.673498	8514.070312
1961.117866	1.062711	0.673498	9533.209961
1961.118794	0.137179	0.673498	9660.511719
1961.119662	0.094827	0.673498	9742.821289
1961.120635	0.095028	0.673498	9835.283203
1961.121580	0.095032	0.673498	9925.087891
1961.122470	0.095017	0.673498	10009.653320
1961.123354	0.094948	0.673498	10093.586914
1961.124299	0.095002	0.673498	10183.364258
1961.125238	0.095010	0.673498	10272.578125
1961.126115	0.094984	0.673498	10355.878906
1961.127025	0.094984	0.673498	10442.314453
1962.118972	1.024849	0.741368	433.510986
1962.119954	1.528121	0.741368	1934.126099
1962.120832	1.518889	0.741368	3267.710693
1962.121752	1.479133	0.741368	4628.513184
1962.122632	1.440297	0.741368	5895.974121
1962.123626	1.400174	0.741368	7287.747559
1962.124557	1.362660	0.741368	8556.383789
1962.125438	1.144893	0.741368	9565.034180
1962.126507	0.123373	0.741368	9696.919922
1962.127404	0.094834	0.741368	9781.986328
1962.128319	0.094969	0.741368	9868.883789
1962.129181	0.094980	0.741368	9950.756836
1962.130191	0.094940	0.741368	10046.646484
1962.131112	0.094937	0.741368	10134.083008
1962.131990	0.095010	0.741368	10217.501953
1962.132857	0.094885	0.741368	10299.767578
1962.133851	0.094940	0.741368	10394.137695
1962.134781	0.094955	0.741368	10482.445312
1963.127125	1.063154	0.776092	473.103668
1963.127989	1.525693	0.776092	1791.302734
1963.129097	1.513623	0.776092	3468.396973
1963.130068	1.470967	0.776092	4896.706055
1963.130935	1.433676	0.776092	6139.702637
1963.131988	1.390342	0.776092	7603.732422
1963.133034	1.349539	0.776092	9015.349609
1963.133925	0.714463	0.776092	9651.935547
1963.134783	0.101840	0.776092	9739.313477
1963.135814	0.095021	0.776092	9837.280273
1963.136770	0.095013	0.776092	9928.113281
1963.137644	0.094980	0.776092	10011.125977
1963.138541	0.095017	0.776092	10096.356445
1963.139633	0.095010	0.776092	10200.107422
1963.140530	0.095112	0.776092	10285.422852
1963.141394	0.095043	0.776092	10367.540039
1963.142419	0.095171	0.776092	10465.089844
1963.143398	0.094937	0.776092	10558.032227
1964.153789	1.032429	0.631205	437.750000
1964.154705	1.524899	0.631205	1834.557129
1964.155773	1.514099	0.631205	3451.614990
1964.156724	1.472454	0.631205	4851.918457
1964.157600	1.434430	0.631205	6108.479004
1964.158667	1.390477	0.631205	7592.118164
1964.159690	1.350223	0.631205	8973.396484
1964.160593	0.736937	0.631205	9638.850586
1964.161553	0.102294	0.631205	9737.052734
1964.162597	0.094937	0.631205	9836.166016
1964.163526	0.094973	0.631205	9924.396484
1964.164388	0.094991	0.631205	10006.279297
1964.165456	0.095050	0.631205	10107.792969
1964.166450	0.094955	0.631205	10202.177734
1964.167341	0.094915	0.631205	10286.747070
1964.168327	0.095046	0.631205	10380.462891
1964.169363	0.095087	0.631205	10478.972656
1964.170272	0.095050	0.631205	10565.373047
1965.145042	1.060979	0.880220	468.952728
1965.145920	1.526360	0.880220	1809.096802
1965.146863	1.519735	0.880220	3242.207031
1965.147824	1.478005	0.880220	4662.570312
1965.148756	1.438162	0.880220	6002.937012
1965.149620	1.400903	0.880220	7213.317383
1965.150580	1.363034	0.880220	8521.830078
1965.151542	1.073251	0.880220	9554.296875
1965.152441	0.139728	0.880220	9679.912109
1965.153318	0.094845	0.880220	9763.090820
1965.154279	0.094896	0.880220	9854.286133
1965.155220	0.094922	0.880220	9943.607422
1965.156107	0.094937	0.880220	10027.816406
1965.157037	0.094948	0.880220	10116.117187
1965.157987	0.094951	0.880220	10206.320312
1965.158877	0.095010	0.880220	10290.878906
1965.159788	0.094973	0.880220	10377.399414
1965.160721	0.094955	0.880220	10465.992187
1966.186571	1.043170	0.546800	454.822174
1966.187441	1.526499	0.546800	1782.876343
1966.188498	1.516033	0.546800	3385.322998
1966.189510	1.471655	0.546800	4874.638184
1966.190412	1.433192	0.546800	6167.377441
1966.191367	1.394066	0.546800	7498.710937
1966.192416	1.352146	0.546800	8917.112305
1966.193353	0.747477	0.546800	9617.498047
1966.194215	0.103400	0.546800	9706.628906
1966.195287	0.095094	0.546800	9808.569336
1966.196278	0.095035	0.546800	9902.749023
1966.197154	0.095006	0.546800	9985.974609
1966.198143	0.095116	0.546800	10080.043945
1966.199184	0.095068	0.546800	10179.009766
1966.200089	0.095021	0.546800	10265.003906
1966.200946	0.095076	0.546800	10346.483398
1966.202041	0.095123	0.546800	10450.643555
1966.203043	0.094999	0.546800	10545.832031
1967.169622	1.066509	0.920712	470.330414
1967.170504	1.526862	0.920712	1817.022339
1967.171384	1.521918	0.920712	3156.310059
1967.172391	1.478914	0.920712	4645.576172
1967.173313	1.437656	0.920712	5971.095215
1967.174246	1.399541	0.920712	7276.867187
1967.175117	1.363638	0.920712	8464.595703
1967.176160	1.039384	0.920712	9548.672852
1967.177053	0.133455	0.920712	9667.847656
1967.177934	0.094871	0.920712	9751.428711
1967.178935	0.094988	0.920712	9846.511719
1967.179867	0.095013	0.920712	9935.064453
1967.180796	0.095028	0.920712	10023.345703
1967.181654	0.095039	0.920712	10104.889648
1967.182676	0.094958	0.920712	10201.937500
1967.183566	0.094948	0.920712	10286.440430
1967.184474	0.094995	0.920712	10372.696289
1967.185352	0.094966	0.920712	10456.076172
1968.212333	1.053907	0.553225	501.659912
1968.213256	1.531589	0.553225	1915.316895
1968.214176	1.517944	0.553225	3311.825684
1968.215056	1.479566	0.553225	4613.843262
1968.216033	1.437927	0.553225	6018.698242
1968.216985	1.398138	0.553225	7349.726074
1968.217864	1.362429	0.553225	8547.301758
1968.218823	1.010636	0.553225	9516.501953
1968.219765	0.125771	0.553225	9634.978516
1968.220675	0.094805	0.553225	9721.250977
1968.221566	0.094885	0.553225	9805.793945
1968.222519	0.094933	0.553225	9896.264648
1968.223435	0.094926	0.553225	9983.216797
1968.224351	0.094893	0.553225	10070.138672
1968.225232	0.094929	0.553225	10153.771484
1968.226157	0.094984	0.553225	10241.631836
1968.227105	0.094904	0.553225	10331.600586
1968.228033	0.094948	0.553225	10419.711914
1969.198603	1.109718	0.892917	558.188110
1969.199553	1.532798	0.892917	2014.346069
1969.200430	1.516758	0.892917	3344.542480
1969.201468	1.471110	0.892917	4871.554199
1969.202492	1.427476	0.892917	6333.289062
1969.203389	1.390400	0.892917	7580.478516
1969.204362	1.352904	0.892917	8896.854492
1969.205429	0.610997	0.892917	9548.789062
1969.206363	0.097009	0.892917	9639.395508
1969.207226	0.094962	0.892917	9721.347656
1969.208319	0.095087	0.892917	9825.277344
1969.209305	0.094969	0.892917	9918.916992
1969.210197	0.094944	0.892917	10003.606445
1969.211188	0.095039	0.892917	10097.790039
1969.212238	0.095068	0.892917	10197.611328
1969.213136	0.094973	0.892917	10282.897461
1969.213995	0.095035	0.892917	10364.533203
1969.215099	0.095105	0.892917	10469.529297
1970.234105	1.064850	0.583486	521.776428
1970.235167	1.533754	0.583486	2150.622803
1970.236117	1.510470	0.583486	3585.569336
1970.236985	1.471556	0.583486	4862.880371
1970.238036	1.427087	0.583486	6362.749023
1970.239053	1.385314	0.583486	7771.613281
1970.239947	1.350183	0.583486	8978.676758
1970.240929	0.668328	0.583486	9634.974609
1970.241975	0.096617	0.583486	9736.036133
1970.242907	0.095050	0.583486	9824.623047
1970.243763	0.095035	0.583486	9905.973633
1970.244805	0.094944	0.583486	10004.905273
1970.245814	0.094896	0.583486	10100.655273
1970.246706	0.094999	0.583486	10185.394531
1970.247675	0.094962	0.583486	10277.413086
1970.248707	0.094955	0.583486	10375.406250
1970.249627	0.095002	0.583486	10462.808594
1970.250487	0.094915	0.583486	10544.435547
1971.233133	1.069966	0.737871	499.674042
1971.234027	1.528795	0.737871	1866.416992
1971.234892	1.521006	0.737871	3182.086914
1971.235874	1.477906	0.737871	4633.391113
1971.236822	1.437308	0.737871	5995.959473
1971.237748	1.399112	0.737871	7291.537598
1971.238615	1.363447	0.737871	8473.646484
1971.239566	1.090320	0.737871	9510.541016
1971.240524	0.141028	0.737871	9645.645508
1971.241422	0.094918	0.737871	9730.881836
1971.242346	0.094988	0.737871	9818.650391
1971.243273	0.094911	0.737871	9906.632812
1971.244206	0.094933	0.737871	9995.205078
1971.245098	0.094962	0.737871	10079.911133
1971.246025	0.094966	0.737871	10167.944336
1971.246977	0.094904	0.737871	10258.292969
1971.247900	0.094948	0.737871	10345.929687
1971.248757	0.094926	0.737871	10427.281250
1972.252052	1.078857	0.598834	554.532715
1972.252952	1.531436	0.598834	1932.824707
1972.253883	1.517296	0.598834	3345.427490
1972.254757	1.478426	0.598834	4637.572266
1972.255745	1.435558	0.598834	6055.903320
1972.256670	1.397120	0.598834	7348.239746
1972.257583	1.360715	0.598834	8590.572266
1972.258470	1.052673	0.598834	9524.293945
1972.259446	0.131389	0.598834	9652.529297
1972.260396	0.094874	0.598834	9742.660156
1972.261289	0.094922	0.598834	9827.425781
1972.262203	0.094980	0.598834	9914.238281
1972.263134	0.094973	0.598834	10002.658203
1972.264079	0.094904	0.598834	10092.341797
1972.264970	0.094889	0.598834	10176.887695
1972.265900	0.094958	0.598834	10265.199219
1972.266854	0.094955	0.598834	10355.786133
1972.267775	0.094966	0.598834	10443.250000
1973.269563	1.037900	0.614987	440.069733
1973.270524	1.528832	0.614987	1909.277100
1973.271457	1.517963	0.614987	3325.536133
1973.272353	1.478547	0.614987	4650.314453
1973.273271	1.439638	0.614987	5971.901855
1973.274199	1.399431	0.614987	7270.574219
1973.275154	1.361818	0.614987	8571.110352
1973.276051	1.123173	0.614987	9578.595703
1973.277053	0.149725	0.614987	9728.620117
1973.278097	0.094944	0.614987	9827.741211
1973.279054	0.094926	0.614987	9918.584961
1973.279913	0.094991	0.614987	10000.182617
1973.280964	0.095087	0.614987	10100.119141
1973.282003	0.094966	0.614987	10198.789062
1973.282889	0.094977	0.614987	10282.938477
1973.283811	0.094980	0.614987	10370.510742
1973.284885	0.095098	0.614987	10472.645508
1973.285825	0.095002	0.614987	10561.948242
1974.271040	1.058866	0.646690	457.430115
1974.272111	1.534493	0.646690	2100.872559
1974.273011	1.514348	0.646690	3463.785889
1974.273898	1.475295	0.646690	4772.373047
1974.274878	1.433965	0.646690	6177.658691
1974.275832	1.393286	0.646690	7506.853516
1974.276762	1.356779	0.646690	8768.657227
1974.277640	0.974539	0.646690	9624.301758
1974.278676	0.108354	0.646690	9736.556641
1974.279561	0.094882	0.646690	9820.526367
1974.280462	0.094958	0.646690	9906.083984
1974.281337	0.094991	0.646690	9989.201172
1974.282292	0.095032	0.646690	10079.956055
1974.283236	0.094933	0.646690	10169.572266
1974.284127	0.094929	0.646690	10254.154297
1974.285129	0.095017	0.646690	10349.361328
1974.286036	0.094988	0.646690	10435.515625
1974.286948	0.094977	0.646690	10522.134766
1975.303355	1.027603	0.561886	433.648285
1975.304348	1.527704	0.561886	1950.658325
1975.305357	1.513575	0.561886	3477.855957
1975.306255	1.473801	0.561886	4801.329590
1975.307125	1.434913	0.561886	6049.704102
1975.308232	1.390803	0.561886	7589.323242
1975.309154	1.353977	0.561886	8837.690430
1975.310045	0.893833	0.561886	9634.095703
1975.311023	0.111453	0.561886	9743.096680
1975.312023	0.094845	0.561886	9837.941406
1975.312911	0.095021	0.561886	9922.320312
1975.313771	0.094951	0.561886	10003.978516
1975.314860	0.095002	0.561886	10107.436523
1975.315767	0.094944	0.561886	10193.550781
1975.316638	0.094958	0.561886	10276.259766
1975.317613	0.095013	0.561886	10368.897461
1975.318617	0.094969	0.561886	10464.247070
1975.319509	0.095024	0.561886	10549.008789
1976.294040	1.075726	0.709757	558.301941
1976.295078	1.534695	0.709757	2151.315186
1976.295967	1.512506	0.709757	3495.933105
1976.296831	1.473666	0.709757	4769.180664
1976.297898	1.428450	0.709757	6293.336426
1976.298855	1.388980	0.709757	7622.589844
1976.299735	1.354138	0.709757	8814.231445
1976.300683	0.813973	0.709757	9585.877930
1976.301729	0.099771	0.709757	9690.238281
1976.302613	0.094977	0.709757	9774.198242
1976.303470	0.095002	0.709757	9855.615234
1976.304511	0.094999	0.709757	9954.508789
1976.305451	0.094922	0.709757	10043.735352
1976.306324	0.094977	0.709757	10126.650391
1976.307218	0.095090	0.709757	10211.661133
1976.308313	0.094973	0.709757	10315.656250
1976.309203	0.094958	0.709757	10400.168945
1976.310082	0.094977	0.709757	10483.653320
1977.330031	1.066868	0.586704	504.628418
1977.331105	1.533970	0.586704	2152.111816
1977.332060	1.510550	0.586704	3594.687500
1977.332930	1.471560	0.586704	4874.944824
1977.333983	1.426677	0.586704	6377.235840
1977.335006	1.384673	0.586704	7793.755859
1977.335903	1.349370	0.586704	9004.140625
1977.336891	0.644440	0.586704	9640.846680
1977.337941	0.096412	0.586704	9742.080078
1977.338863	0.095017	0.586704	9829.685547
1977.339720	0.094995	0.586704	9911.096680
1977.340787	0.095101	0.586704	10012.569336
1977.341789	0.095028	0.586704	10107.787109
1977.342659	0.094984	0.586704	10190.422852
1977.343622	0.095101	0.586704	10282.005859
1977.344688	0.095098	0.586704	10383.379883
1977.345592	0.094962	0.586704	10469.225586
1977.346466	0.095054	0.586704	10552.302734
1978.322376	1.038512	0.714293	444.483124
1978.323295	1.525001	0.714293	1845.959229
1978.324370	1.513543	0.714293	3473.017578
1978.325326	1.471406	0.714293	4879.681641
1978.326186	1.433683	0.714293	6112.648926
1978.327222	1.390620	0.714293	7553.331543
1978.328256	1.350249	0.714293	8949.489258
1978.329157	0.751699	0.714293	9626.770508
1978.330112	0.103022	0.714293	9725.157227
1978.331163	0.094940	0.714293	9824.939453
1978.332091	0.094951	0.714293	9913.053711
1978.332957	0.095024	0.714293	9995.344727
1978.334035	0.095072	0.714293	10097.832031
1978.335026	0.094904	0.714293	10191.881836
1978.335923	0.095024	0.714293	10277.119141
1978.336889	0.095017	0.714293	10368.905273
1978.337939	0.094984	0.714293	10468.638672
1978.338854	0.094951	0.714293	10555.518555
1979.353012	1.045521	0.582309	439.118927
1979.354135	1.533571	0.582309	2161.318604
1979.355108	1.509708	0.582309	3630.264648
1979.355984	1.470747	0.582309	4918.639160
1979.357014	1.426769	0.582309	6388.210937
1979.358064	1.383871	0.582309	7841.275391
1979.358959	1.348462	0.582309	9048.148437
1979.359895	0.662076	0.582309	9667.851562
1979.360955	0.096346	0.582309	9769.978516
1979.361907	0.095054	0.582309	9860.469727
1979.362771	0.094980	0.582309	9942.533203
1979.363820	0.095068	0.582309	10042.259766
1979.364833	0.094984	0.582309	10138.478516
1979.365717	0.094991	0.582309	10222.451172
1979.366686	0.095065	0.582309	10314.569336
1979.367723	0.095079	0.582309	10413.166992
1979.368648	0.095061	0.582309	10501.098633
1979.369508	0.095076	0.582309	10582.863281
1980.352833	1.040581	0.666380	448.490417
1980.353697	1.524741	0.666380	1765.866699
1980.354761	1.516315	0.666380	3379.225586
1980.355658	1.476592	0.666380	4703.728516
1980.356539	1.438737	0.666380	5971.255371
1980.357530	1.398409	0.666380	7357.079102
1980.358476	1.360008	0.666380	8643.647461
1980.359400	1.029478	0.666380	9594.884766
1980.360264	0.135992	0.666380	9712.381836
1980.361282	0.094871	0.666380	9808.959961
1980.362182	0.094962	0.666380	9894.425781
1980.363060	0.094988	0.666380	9977.825195
1980.363991	0.095083	0.666380	10066.347656
1980.364981	0.095035	0.666380	10160.432617
1980.365894	0.095017	0.666380	10247.183594
1980.366768	0.095068	0.666380	10330.273437
1980.367866	0.095087	0.666380	10434.678711
1980.368759	0.094980	0.666380	10519.496094
1981.372534	1.072603	0.625610	500.905365
1981.373430	1.529176	0.625610	1871.047119
1981.374295	1.521152	0.625610	3186.843750
1981.375285	1.479478	0.625610	4651.526367
1981.376186	1.438198	0.625610	5947.342773
1981.377124	1.399944	0.625610	7260.490234
1981.378006	1.363850	0.625610	8463.406250
1981.378982	1.079835	0.625610	9517.325195
1981.379943	0.136311	0.625610	9648.320312
1981.380834	0.094969	0.625610	9732.938477
1981.381749	0.095046	0.625610	9819.906250
1981.382702	0.094980	0.625610	9910.422852
1981.383598	0.095039	0.625610	9995.578125
1981.384493	0.094999	0.625610	10080.601562
1981.385432	0.094991	0.625610	10169.798828
1981.386386	0.095006	0.625610	10260.434570
1981.387259	0.095010	0.625610	10343.377930
1981.388174	0.095035	0.625610	10430.334961
1982.385395	1.071984	0.583804	516.696167
1982.386355	1.531187	0.583804	1986.635254
1982.387283	1.516512	0.583804	3393.958740
1982.388148	1.477548	0.583804	4672.037109
1982.389078	1.436744	0.583804	6008.209473
1982.390044	1.396729	0.583804	7357.449219
1982.390975	1.360217	0.583804	8623.811523
1982.391855	1.062543	0.583804	9558.849609
1982.392836	0.128507	0.583804	9684.915039
1982.393763	0.094907	0.583804	9772.893555
1982.394625	0.095127	0.583804	9854.892578
1982.395595	0.094984	0.583804	9947.027344
1982.396512	0.094988	0.583804	10034.130859
1982.397440	0.095068	0.583804	10122.354492
1982.398298	0.095076	0.583804	10203.929687
1982.399247	0.095021	0.583804	10294.104492
1982.400200	0.095013	0.583804	10384.652344
1982.401099	0.095076	0.583804	10470.125000
1983.393180	1.121785	0.651105	568.744812
1983.394239	1.533922	0.651105	2193.168213
1983.395124	1.512045	0.651105	3531.327637
1983.396003	1.471615	0.651105	4824.876953
1983.397109	1.425956	0.651105	6401.984375
1983.398069	1.386094	0.651105	7732.634277
1983.398950	1.351516	0.651105	8923.320312
1983.399976	0.633259	0.651105	9573.043945
1983.401014	0.096350	0.651105	9673.055664
1983.401908	0.094937	0.651105	9757.928711
1983.402853	0.095072	0.651105	9847.771484
1983.403911	0.095061	0.651105	9948.345703
1983.404852	0.095028	0.651105	10037.767578
1983.405724	0.095032	0.651105	10120.634766
1983.406783	0.095072	0.651105	10221.316406
1983.407800	0.094955	0.651105	10317.885742
1983.408695	0.095046	0.651105	10402.952148
1983.409655	0.095032	0.651105	10494.182617
1984.417438	1.113501	0.520088	568.998962
1984.418327	1.531871	0.520088	1930.832520
1984.419201	1.519453	0.520088	3258.834473
1984.420064	1.479452	0.520088	4535.601562
1984.421114	1.435594	0.520088	6042.975586
1984.422015	1.398237	0.520088	7302.787598
1984.422903	1.363271	0.520088	8513.373047
1984.423910	1.005714	0.520088	9526.126953
1984.424845	0.122977	0.520088	9641.110352
1984.425767	0.094896	0.520088	9728.604492
1984.426631	0.094999	0.520088	9810.683594
1984.427678	0.095017	0.520088	9910.166016
1984.428570	0.094999	0.520088	9994.905273
1984.429446	0.094984	0.520088	10078.111328
1984.430422	0.095090	0.520088	10170.919922
1984.431375	0.095054	0.520088	10261.505859
1984.432302	0.095028	0.520088	10349.596680
1984.433163	0.095116	0.520088	10431.491211
1985.415115	1.038607	0.717246	454.909912
1985.415976	1.525045	0.717246	1767.973755
1985.417055	1.515370	0.717246	3403.057861
1985.417973	1.474497	0.717246	4756.646484
1985.418860	1.436466	0.717246	6030.791992
1985.419825	1.396685	0.717246	7378.592773
1985.420863	1.355098	0.717246	8785.183594
1985.421771	0.914194	0.717246	9615.272461
1985.422634	0.115723	0.717246	9715.141602
1985.423703	0.095035	0.717246	9816.734375
1985.424646	0.094929	0.717246	9906.252930
1985.425527	0.094988	0.717246	9989.937500
1985.426469	0.095021	0.717246	10079.447266
1985.427487	0.094922	0.717246	10176.078125
1985.428373	0.094940	0.717246	10260.195312
1985.429248	0.094948	0.717246	10343.274414
1985.430180	0.094999	0.717246	10431.813477
1985.431176	0.094904	0.717246	10526.337891
1986.447241	1.091968	0.516176	545.983887
1986.448122	1.531304	0.516176	1895.062378
1986.448988	1.518398	0.516176	3209.995361
1986.450101	1.472010	0.516176	4848.342773
1986.451072	1.430753	0.516176	6237.604004
1986.451941	1.394440	0.516176	7449.372070
1986.452964	1.354124	0.516176	8834.640625
1986.454018	0.675007	0.516176	9546.098633
1986.454908	0.099272	0.516176	9634.451172
1986.455841	0.094995	0.516176	9723.082031
1986.456924	0.095021	0.516176	9825.989258
1986.457862	0.095054	0.516176	9915.149414
1986.458736	0.094980	0.516176	9998.162109
1986.459779	0.095050	0.516176	10097.298828
1986.460793	0.094907	0.516176	10193.535156
1986.461685	0.094962	0.516176	10278.241211
1986.462630	0.095032	0.516176	10368.045898
1986.463675	0.095046	0.516176	10467.369141
1987.439127	1.075880	0.738914	557.305847
1987.440191	1.533142	0.738914	2188.569092
1987.441134	1.509034	0.738914	3611.588379
1987.441996	1.469974	0.738914	4878.706055
1987.443062	1.425308	0.738914	6398.083984
1987.444088	1.383289	0.738914	7817.337891
1987.444965	1.348425	0.738914	8999.907227
1987.445954	0.606489	0.738914	9599.724609
1987.447006	0.096042	0.738914	9700.761719
1987.447918	0.094962	0.738914	9787.367187
1987.448783	0.094907	0.738914	9869.461914
1987.449879	0.095021	0.738914	9973.604492
1987.450865	0.094926	0.738914	10067.201172
1987.451756	0.094915	0.738914	10151.770508
1987.452742	0.095076	0.738914	10245.514648
1987.453800	0.095061	0.738914	10346.088867
1987.454698	0.094958	0.738914	10431.361328
1987.455562	0.095021	0.738914	10513.458984
1988.474480	1.060038	0.501417	492.917603
1988.475418	1.531311	0.501417	1929.287354
1988.476337	1.517622	0.501417	3323.981934
1988.477203	1.478401	0.501417	4604.277344
1988.478174	1.437550	0.501417	6000.138672
1988.479126	1.398292	0.501417	7331.312988
1988.480007	1.362656	0.501417	8531.813477
1988.480931	1.087529	0.501417	9536.690430
1988.481887	0.137919	0.501417	9668.541016
1988.482813	0.094896	0.501417	9756.415039
1988.483685	0.094944	0.501417	9839.206055
1988.484645	0.094951	0.501417	9930.359375
1988.485575	0.094995	0.501417	10018.705078
1988.486503	0.095039	0.501417	10106.901367
1988.487365	0.094999	0.501417	10188.790039
1988.488336	0.094973	0.501417	10281.008789
1988.489273	0.095013	0.501417	10370.036133
1988.490149	0.094999	0.501417	10453.254883
1989.465020	1.027647	0.719131	434.694489
1989.465946	1.523855	0.719131	1845.784180
1989.467023	1.513832	0.719131	3476.181152
1989.467910	1.474208	0.719131	4783.803711
1989.468777	1.436378	0.719131	6029.143555
1989.469805	1.393455	0.719131	7461.615234
1989.470775	1.355632	0.719131	8776.578125
1989.471665	0.947260	0.719131	9619.638672
1989.472556	0.120337	0.719131	9726.858398
1989.473647	0.094944	0.719131	9830.442383
1989.474543	0.094980	0.719131	9915.544922
1989.475405	0.094958	0.719131	9997.399414
1989.476449	0.095083	0.719131	10096.666016
1989.477422	0.095006	0.719131	10189.107422
1989.478315	0.095068	0.719131	10274.003906
1989.479170	0.094940	0.719131	10355.177734
1989.480284	0.095061	0.719131	10461.076172
1989.481165	0.095028	0.719131	10544.795898
1990.501494	1.083146	0.498001	523.159363
1990.502436	1.532047	0.498001	1966.347900
1990.503373	1.516556	0.498001	3387.361328
1990.504240	1.477595	0.498001	4668.436523
1990.505200	1.437213	0.498001	6048.161133
1990.506143	1.397585	0.498001	7366.083984
1990.507042	1.361023	0.498001	8589.643555
1990.507924	1.052585	0.498001	9518.023437
1990.508905	0.133033	0.498001	9648.529297
1990.509852	0.094929	0.498001	9738.427734
1990.510743	0.094991	0.498001	9823.065430
1990.511658	0.095035	0.498001	9910.022461
1990.512594	0.094918	0.498001	9998.866211
1990.513521	0.095017	0.498001	10086.947266
1990.514407	0.094977	0.498001	10171.096680
1990.515400	0.094980	0.498001	10265.412109
1990.516432	0.094940	0.498001	10363.390625
1990.517384	0.094973	0.498001	10453.804687
1991.491514	1.029302	0.744977	432.306732
1991.492539	1.530102	0.744977	2000.661865
1991.493571	1.510924	0.744977	3559.935547
1991.494463	1.471326	0.744977	4872.358398
1991.495420	1.430940	0.744977	6241.768066
1991.496475	1.386793	0.744977	7704.834961
1991.497411	1.350103	0.744977	8968.531250
1991.498286	0.769929	0.744977	9642.219727
1991.499370	0.098159	0.744977	9748.624023
1991.500380	0.094951	0.744977	9844.524414
1991.501271	0.095017	0.744977	9929.184570
1991.502246	0.094973	0.744977	10021.783203
1991.503301	0.094999	0.744977	10122.006836
1991.504202	0.095013	0.744977	10207.614258
1991.505060	0.094966	0.744977	10289.094727
1991.506146	0.095068	0.744977	10392.338867
1991.507141	0.094944	0.744977	10486.807617
1991.508019	0.095013	0.744977	10570.229492
