time (s)	coil I (A)	last det (V)	int current (uC)
4693.358598	1.101665	0.148733	524.392578
4693.359494	1.529854	0.148733	1895.141357
4693.360360	1.521035	0.148733	3212.357910
4693.361353	1.479221	0.148733	4681.224609
4693.362305	1.438330	0.148733	6050.514648
4693.363200	1.400508	0.148733	7303.969238
4693.364112	1.063671	0.148733	8274.037109
4693.365075	0.129049	0.148733	8398.311523
4693.366002	0.094834	0.148733	8486.222656
4693.366871	0.094944	0.148733	8568.728516
4693.367781	0.094969	0.148733	8655.150391
4693.368727	0.094973	0.148733	8744.995117
4693.369650	0.094999	0.148733	8832.678711
4693.370519	0.094918	0.148733	8915.163086
4693.371481	0.094973	0.148733	9006.527344
4693.372421	0.094900	0.148733	9095.733398
4693.373317	0.094940	0.148733	9180.799805
4694.430709	1.067512	0.132499	514.540894
4694.431655	1.531685	0.132499	1963.514526
4694.432582	1.517985	0.132499	3370.686279
4694.433452	1.479488	0.132499	4657.841309
4694.434424	1.438689	0.132499	6056.247070
4694.435365	1.398951	0.132499	7372.660156
4694.436281	1.008351	0.132499	8296.309570
4694.437140	0.129353	0.132499	8407.423828
4694.438106	0.094849	0.132499	8499.047852
4694.439049	0.094911	0.132499	8588.548828
4694.439939	0.094929	0.132499	8673.036133
4694.440857	0.094940	0.132499	8760.191406
4694.441815	0.094951	0.132499	8851.154297
4694.442706	0.094955	0.132499	8935.758789
4694.443563	0.094969	0.132499	9017.147461
4694.444535	0.095013	0.132499	9109.500977
4694.445486	0.095024	0.132499	9199.869141
4695.384550	1.097040	0.122597	513.414551
4695.385485	1.530388	0.122597	1944.327393
4695.386410	1.518534	0.122597	3348.971191
4695.387293	1.479397	0.122597	4655.278809
4695.388269	1.438044	0.122597	6058.810059
4695.389222	1.398347	0.122597	7391.435059
4695.390125	1.013617	0.122597	8306.731445
4695.391039	0.129276	0.122597	8424.889648
4695.392001	0.094852	0.122597	8516.137695
4695.392923	0.094977	0.122597	8603.706055
4695.393784	0.094969	0.122597	8685.474609
4695.394776	0.094966	0.122597	8779.680664
4695.395728	0.095006	0.122597	8870.126953
4695.396627	0.094980	0.122597	8955.514648
4695.397505	0.095021	0.122597	9038.942383
4695.398466	0.095028	0.122597	9130.264648
4695.399410	0.094977	0.122597	9219.922852
4696.451051	1.050853	0.186269	481.290802
4696.451953	1.527814	0.186269	1859.378662
4696.452815	1.522635	0.186269	3171.890381
4696.453733	1.481906	0.186269	4532.279785
4696.454697	1.440582	0.186269	5921.000977
4696.455622	1.402496	0.186269	7218.310059
4696.456492	1.123495	0.186269	8195.750977
4696.457464	0.143489	0.186269	8335.221680
4696.458403	0.094790	0.186269	8424.229492
4696.459295	0.095002	0.186269	8508.971680
4696.460204	0.094882	0.186269	8595.218750
4696.461148	0.094940	0.186269	8684.841797
4696.462067	0.094878	0.186269	8772.034180
4696.462939	0.094991	0.186269	8854.867187
4696.463846	0.094958	0.186269	8940.994141
4696.464793	0.095013	0.186269	9030.971680
4696.465711	0.094944	0.186269	9118.129883
4697.409991	1.032762	0.155255	451.317169
4697.410866	1.524664	0.155255	1785.398437
4697.411734	1.524159	0.155255	3108.368408
4697.412789	1.480148	0.155255	4669.924316
4697.413682	1.440934	0.155255	5956.678223
4697.414556	1.403815	0.155255	7183.612305
4697.415424	1.095190	0.155255	8134.237305
4697.416482	0.129719	0.155255	8271.480469
4697.417359	0.094819	0.155255	8354.636719
4697.418234	0.094933	0.155255	8437.703125
4697.419219	0.095050	0.155255	8531.327148
4697.420168	0.094973	0.155255	8621.457031
4697.421093	0.094984	0.155255	8709.317383
4697.421954	0.094980	0.155255	8791.095703
4697.422975	0.094951	0.155255	8888.041016
4697.423859	0.094922	0.155255	8971.952148
4697.424738	0.094999	0.155255	9055.456055
4698.479052	1.046942	0.128036	458.560638
4698.479914	1.524584	0.128036	1772.751831
4698.480899	1.520533	0.128036	3270.477295
4698.481831	1.479393	0.128036	4649.271973
4698.482733	1.440765	0.128036	5948.842285
4698.483650	1.402529	0.128036	7234.961426
4698.484609	1.054665	0.128036	8246.385742
4698.485539	0.127844	0.128036	8365.281250
4698.486418	0.094874	0.128036	8448.675781
4698.487398	0.094893	0.128036	8541.670898
4698.488309	0.094896	0.128036	8628.121094
4698.489229	0.094929	0.128036	8715.456055
4698.490089	0.094944	0.128036	8797.107422
4698.491050	0.094940	0.128036	8888.344727
4698.491990	0.094929	0.128036	8977.578125
4698.492860	0.095006	0.128036	9060.233398
4698.493769	0.095028	0.128036	9146.614258
4699.449814	1.049403	0.172404	463.836151
4699.450685	1.525056	0.172404	1792.160034
4699.451735	1.516882	0.172404	3384.886475
4699.452761	1.472597	0.172404	4895.770508
4699.453650	1.434254	0.172404	6170.822266
4699.454516	1.397391	0.172404	7380.962891
4699.455598	0.769380	0.172404	8213.431641
4699.456524	0.101462	0.172404	8307.385742
4699.457391	0.094885	0.172404	8389.651367
4699.458327	0.095057	0.172404	8478.625000
4699.459381	0.095028	0.172404	8578.784180
4699.460275	0.094969	0.172404	8663.686523
4699.461137	0.095039	0.172404	8745.610352
4699.462167	0.094966	0.172404	8843.424805
4699.463124	0.094999	0.172404	8934.338867
4699.464002	0.095024	0.172404	9017.770508
4699.464915	0.094915	0.172404	9104.427734
4700.505624	1.109945	0.181955	564.962036
4700.506538	1.532010	0.181955	1965.219604
4700.507414	1.519534	0.181955	3296.331055
4700.508393	1.477614	0.181955	4742.915039
4700.509402	1.433243	0.181955	6189.057617
4700.510293	1.396315	0.181955	7433.173828
4700.511170	0.958477	0.181955	8273.757812
4700.512254	0.104890	0.181955	8387.458984
4700.513180	0.094915	0.181955	8475.349609
4700.514052	0.094958	0.181955	8558.153320
4700.515027	0.095072	0.181955	8650.848633
4700.516048	0.094988	0.181955	8747.831055
4700.516928	0.094973	0.181955	8831.407227
4700.517783	0.094995	0.181955	8912.627930
4700.518845	0.094999	0.181955	9013.516602
4700.519764	0.094907	0.181955	9100.736328
4700.520637	0.094966	0.181955	9183.641602
4701.468708	1.118291	0.159493	577.038147
4701.469652	1.532750	0.159493	2023.954346
4701.470516	1.517904	0.159493	3335.423340
4701.471583	1.472124	0.159493	4906.179687
4701.472598	1.428787	0.159493	6356.397949
4701.473488	1.391715	0.159493	7595.024414
4701.474476	0.714419	0.159493	8300.870117
4701.475515	0.097804	0.159493	8402.488281
4701.476428	0.094878	0.159493	8489.112305
4701.477297	0.094929	0.159493	8571.605469
4701.478249	0.095043	0.159493	8662.085937
4701.479264	0.095006	0.159493	8758.517578
4701.480151	0.094999	0.159493	8842.781250
4701.481010	0.094962	0.159493	8924.353516
4701.482076	0.095024	0.159493	9025.649414
4701.483025	0.094929	0.159493	9115.737305
4701.483909	0.094948	0.159493	9199.670898
4702.536701	1.070779	0.190358	517.186157
4702.537579	1.528634	0.190358	1859.326904
4702.538462	1.521489	0.190358	3202.801758
4702.539382	1.482349	0.190358	4566.562500
4702.540336	1.441157	0.190358	5941.426758
4702.541262	1.402170	0.190358	7239.836426
4702.542146	1.138000	0.190358	8245.829102
4702.543102	0.139080	0.190358	8378.789062
4702.544036	0.094882	0.190358	8467.408203
4702.544959	0.095013	0.190358	8555.105469
4702.545820	0.094984	0.190358	8636.886719
4702.546780	0.094969	0.190358	8728.057617
4702.547701	0.094991	0.190358	8815.544922
4702.548597	0.095002	0.190358	8900.666992
4702.549505	0.095039	0.190358	8986.962891
4702.550430	0.094966	0.190358	9074.806641
4702.551359	0.094955	0.190358	9163.019531
4703.497793	1.148309	0.206193	641.904846
4703.498849	1.534545	0.206193	2262.384033
4703.499752	1.510576	0.206193	3626.434326
4703.500615	1.470641	0.206193	4895.597656
4703.501720	1.425326	0.206193	6470.583008
4703.502680	1.385914	0.206193	7801.060547
4703.503548	0.639701	0.206193	8356.321289
4703.504580	0.097716	0.206193	8457.164062
4703.505613	0.094929	0.206193	8555.225586
4703.506492	0.095002	0.206193	8638.732422
4703.507401	0.094958	0.206193	8725.049805
4703.508464	0.095035	0.206193	8826.072266
4703.509406	0.094904	0.206193	8915.471680
4703.510263	0.095002	0.206193	8996.888672
4703.511282	0.095021	0.206193	9093.714844
4703.512311	0.094904	0.206193	9191.371094
4703.513202	0.094907	0.206193	9275.933594
4704.564771	1.111421	0.182450	571.270386
4704.565783	1.534270	0.182450	2123.951660
4704.566656	1.515319	0.182450	3446.824707
4704.567649	1.471564	0.182450	4908.087402
4704.568729	1.426227	0.182450	6448.412109
4704.569617	1.388657	0.182450	7681.539551
4704.570488	0.707443	0.182450	8297.721680
4704.571594	0.097189	0.182450	8405.212891
4704.572566	0.094889	0.182450	8497.445312
4704.573435	0.094973	0.182450	8579.976562
4704.574439	0.095065	0.182450	8675.421875
4704.575482	0.094984	0.182450	8774.490234
4704.576369	0.094948	0.182450	8858.708984
4704.577260	0.094948	0.182450	8943.307617
4704.578341	0.094991	0.182450	9045.993164
4704.579293	0.094896	0.182450	9136.333984
4704.580155	0.094948	0.182450	9218.178711
4705.518625	1.111428	0.192424	579.054077
4705.519528	1.531234	0.192424	1961.758545
4705.520453	1.517256	0.192424	3365.220215
4705.521339	1.478925	0.192424	4675.547363
4705.522304	1.437294	0.192424	6062.536133
4705.523257	1.397780	0.192424	7394.620117
4705.524145	1.013613	0.192424	8294.708984
4705.525085	0.129825	0.192424	8416.745117
4705.526004	0.094742	0.192424	8503.813477
4705.526920	0.094915	0.192424	8590.754883
4705.527807	0.094929	0.192424	8674.957031
4705.528740	0.094871	0.192424	8763.471680
4705.529674	0.094882	0.192424	8852.090820
4705.530606	0.094889	0.192424	8940.527344
4705.531495	0.094893	0.192424	9024.886719
4705.532429	0.094863	0.192424	9113.489258
4705.533372	0.094852	0.192424	9202.934570
4706.596844	1.086281	0.209561	497.516510
4706.597726	1.527407	0.209561	1844.689575
4706.598597	1.522621	0.209561	3170.892334
4706.599529	1.482352	0.209561	4552.444336
4706.600477	1.441091	0.209561	5918.598633
4706.601399	1.402775	0.209561	7211.957031
4706.602277	1.148196	0.209561	8220.073242
4706.603253	0.150275	0.209561	8366.741211
4706.604222	0.094849	0.209561	8458.649414
4706.605115	0.095006	0.209561	8543.490234
4706.605998	0.094896	0.209561	8627.283203
4706.606935	0.094944	0.209561	8716.245117
4706.607889	0.094926	0.209561	8806.803711
4706.608781	0.094980	0.209561	8891.526367
4706.609703	0.094951	0.209561	8979.071289
4706.610654	0.094948	0.209561	9069.366211
4706.611566	0.094904	0.209561	9155.917969
4707.539971	1.078491	0.199925	525.225220
4707.540897	1.529711	0.199925	1941.737427
4707.541769	1.519651	0.199925	3266.873047
4707.542693	1.479935	0.199925	4634.333008
4707.543652	1.438641	0.199925	6013.990234
4707.544581	1.399768	0.199925	7314.375000
4707.545465	1.075276	0.199925	8264.918945
4707.546398	0.127742	0.199925	8384.101562
4707.547350	0.094849	0.199925	8474.397461
4707.548273	0.094969	0.199925	8562.054687
4707.549137	0.094918	0.199925	8644.064453
4707.550106	0.094948	0.199925	8736.068359
4707.551064	0.094962	0.199925	8827.041992
4707.551933	0.094951	0.199925	8909.554687
4707.552821	0.094940	0.199925	8993.861328
4707.553773	0.094951	0.199925	9084.254883
4707.554718	0.094958	0.199925	9173.990234
4708.621331	1.104185	0.198906	556.509033
4708.622269	1.532512	0.198906	1994.005493
4708.623140	1.518263	0.198906	3316.412598
4708.624184	1.472655	0.198906	4853.864258
4708.625217	1.428625	0.198906	6329.634277
4708.626113	1.391660	0.198906	7576.561523
4708.627076	0.734652	0.198906	8284.031250
4708.628119	0.097965	0.198906	8386.208984
4708.629049	0.094922	0.198906	8474.486328
4708.629913	0.094999	0.198906	8556.565430
4708.630994	0.095116	0.198906	8659.385742
4708.631983	0.095021	0.198906	8753.361328
4708.632876	0.094988	0.198906	8838.185547
4708.633861	0.095046	0.198906	8931.806641
4708.634896	0.094977	0.198906	9030.107422
4708.635804	0.094951	0.198906	9116.323242
4708.636661	0.095050	0.198906	9197.781250
4709.570529	1.050776	0.218850	488.611023
4709.571613	1.533014	0.218850	2150.398193
4709.572509	1.513506	0.218850	3506.499512
4709.573376	1.475244	0.218850	4785.536133
4709.574404	1.431244	0.218850	6256.854980
4709.575378	1.390679	0.218850	7611.375977
4709.576262	0.805155	0.218850	8323.132812
4709.577119	0.107043	0.218850	8414.869141
4709.578217	0.094929	0.218850	8519.101562
4709.579108	0.095024	0.218850	8603.768555
4709.579971	0.094955	0.218850	8685.714844
4709.580978	0.094911	0.218850	8781.290039
4709.581972	0.094929	0.218850	8875.649414
4709.582860	0.094948	0.218850	8959.962891
4709.583716	0.095002	0.218850	9041.285156
4709.584803	0.094969	0.218850	9144.516602
4709.585710	0.094969	0.218850	9230.654297
4710.644671	1.030466	0.209770	440.009125
4710.645537	1.523591	0.209770	1759.439209
4710.646520	1.520856	0.209770	3254.440430
4710.647472	1.479613	0.209770	4663.032227
4710.648365	1.440520	0.209770	5949.416504
4710.649248	1.403141	0.209770	7188.389648
4710.650189	1.082377	0.209770	8206.906250
4710.651148	0.138373	0.209770	8339.605469
4710.652041	0.094918	0.209770	8424.367187
4710.652954	0.095010	0.209770	8511.111328
4710.653901	0.095050	0.209770	8601.124023
4710.654823	0.094977	0.209770	8688.692383
4710.655695	0.095043	0.209770	8771.569336
4710.656677	0.094918	0.209770	8864.779297
4710.657627	0.094955	0.209770	8954.986328
4710.658552	0.094984	0.209770	9042.846680
4710.659414	0.094955	0.209770	9124.697266
4711.618515	1.044466	0.229880	454.342926
4711.619421	1.526378	0.229880	1837.241455
4711.620302	1.521753	0.229880	3177.905762
4711.621218	1.482719	0.229880	4536.076172
4711.622181	1.440703	0.229880	5923.473145
4711.623103	1.402236	0.229880	7216.334961
4711.623981	1.166378	0.229880	8240.415039
4711.624919	0.167164	0.229880	8397.214844
4711.625860	0.094772	0.229880	8486.395508
4711.626776	0.094962	0.229880	8573.380859
4711.627648	0.094973	0.229880	8656.197266
4711.628566	0.094874	0.229880	8743.291992
4711.629510	0.094878	0.229880	8832.856445
4711.630433	0.094933	0.229880	8920.479492
4711.631293	0.094955	0.229880	9002.140625
4711.632263	0.095002	0.229880	9094.292969
4711.633214	0.095021	0.229880	9184.657227
4712.657973	1.122539	0.250702	596.068237
4712.658856	1.530974	0.250702	1947.918457
4712.659735	1.519083	0.250702	3283.192627
4712.660628	1.479020	0.250702	4603.957031
4712.661675	1.434943	0.250702	6106.341797
4712.662578	1.397322	0.250702	7368.123535
4712.663460	1.034985	0.250702	8280.980469
4712.664473	0.122772	0.250702	8405.348633
4712.665392	0.094830	0.250702	8492.498047
4712.666311	0.094988	0.250702	8579.791992
4712.667170	0.094958	0.250702	8661.361328
4712.668216	0.094969	0.250702	8760.699219
4712.669097	0.095002	0.250702	8844.396484
4712.669963	0.094991	0.250702	8926.659180
4712.670938	0.094995	0.250702	9019.279297
4712.671882	0.094911	0.250702	9108.875000
4712.672794	0.094988	0.250702	9195.503906
4713.665521	1.071863	0.257159	512.350342
4713.666458	1.530004	0.257159	1945.963745
4713.667385	1.517644	0.257159	3352.819824
4713.668251	1.479141	0.257159	4633.755859
4713.669230	1.438048	0.257159	6041.604980
4713.670183	1.398402	0.257159	7374.282227
4713.671084	1.014258	0.257159	8288.128906
4713.671945	0.130499	0.257159	8400.488281
4713.672887	0.094838	0.257159	8489.825195
4713.673834	0.094933	0.257159	8579.726562
4713.674724	0.094980	0.257159	8664.258789
4713.675632	0.095010	0.257159	8750.527344
4713.676593	0.095010	0.257159	8841.832031
4713.677515	0.094977	0.257159	8929.400391
4713.678388	0.095017	0.257159	9012.350586
4713.679374	0.094951	0.257159	9105.972656
4713.680312	0.094969	0.257159	9195.053711
4714.662329	1.023468	0.288959	432.926971
4714.663326	1.525935	0.288959	1954.284302
4714.664377	1.512301	0.288959	3543.712646
4714.665278	1.472468	0.288959	4870.406250
4714.666144	1.433218	0.288959	6111.572754
4714.667264	1.388635	0.288959	7666.844238
4714.668242	0.621848	0.288959	8275.011719
4714.669111	0.099126	0.288959	8361.152344
4714.670166	0.094940	0.288959	8461.314453
4714.671185	0.094918	0.288959	8558.036133
4714.672063	0.094911	0.288959	8641.368164
4714.672987	0.094962	0.288959	8729.113281
4714.674036	0.094907	0.288959	8828.670898
4714.674974	0.094980	0.288959	8917.762695
4714.675836	0.094911	0.288959	8999.576172
4714.676877	0.094969	0.288959	9098.439453
4714.677896	0.094915	0.288959	9195.157227
4715.721165	1.042207	0.236389	451.275635
4715.722054	1.524481	0.236389	1806.539429
4715.722998	1.519292	0.236389	3240.750977
4715.723919	1.479705	0.236389	4603.559082
4715.724812	1.441498	0.236389	5890.816406
4715.725722	1.403071	0.236389	7167.611328
4715.726687	1.093235	0.236389	8222.583008
4715.727616	0.135626	0.236389	8348.580078
4715.728479	0.094834	0.236389	8430.421875
4715.729449	0.094845	0.236389	8522.421875
4715.730398	0.094918	0.236389	8612.499023
4715.731289	0.094878	0.236389	8697.035156
4715.732168	0.094907	0.236389	8780.458984
4715.733106	0.094889	0.236389	8869.464844
4715.734051	0.094951	0.236389	8959.193359
4715.734937	0.094958	0.236389	9043.326172
4715.735844	0.094999	0.236389	9129.490234
4716.663231	1.027745	0.237272	438.847260
4716.664191	1.523441	0.237272	1901.350830
4716.665097	1.518527	0.237272	3277.135986
4716.666019	1.479104	0.237272	4640.870117
4716.666902	1.441106	0.237272	5913.366699
4716.667864	1.401006	0.237272	7261.134277
4716.668812	1.044661	0.237272	8251.472656
4716.669733	0.129880	0.237272	8371.092773
4716.670596	0.094794	0.237272	8452.899414
4716.671568	0.094951	0.237272	8545.192383
4716.672499	0.094882	0.237272	8633.527344
4716.673357	0.094933	0.237272	8714.979492
4716.674343	0.094937	0.237272	8808.586914
4716.675237	0.094922	0.237272	8893.447266
4716.676146	0.094969	0.237272	8979.774414
4716.677025	0.094933	0.237272	9063.220703
4716.677977	0.094896	0.237272	9153.561523
4717.760018	1.106481	0.283916	552.133850
4717.761026	1.533743	0.283916	2098.146484
4717.761917	1.514835	0.283916	3447.864746
4717.762903	1.471860	0.283916	4899.119141
4717.763968	1.425905	0.283916	6417.707520
4717.764886	1.387808	0.283916	7691.714844
4717.765752	0.723512	0.283916	8318.276367
4717.766837	0.097496	0.283916	8424.059570
4717.767823	0.094889	0.283916	8517.620117
4717.768720	0.094918	0.283916	8602.761719
4717.769702	0.095006	0.283916	8696.057617
4717.770759	0.094951	0.283916	8796.420898
4717.771644	0.094940	0.283916	8880.443359
4717.772508	0.094915	0.283916	8962.449219
4717.773603	0.094958	0.283916	9066.428711
4717.774561	0.094937	0.283916	9157.377930
4717.775423	0.094980	0.283916	9239.250977
4718.688702	1.023816	0.264435	433.074127
4718.689732	1.528055	0.264435	2006.971191
4718.690773	1.511342	0.264435	3580.277832
4718.691659	1.471890	0.264435	4884.372070
4718.692587	1.431903	0.264435	6213.178223
4718.693657	1.388188	0.264435	7698.540039
4718.694606	0.627671	0.264435	8294.199219
4718.695469	0.099503	0.264435	8380.070312
4718.696515	0.094969	0.264435	8479.408203
4718.697530	0.094980	0.264435	8575.813477
4718.698400	0.094929	0.264435	8658.402344
4718.699346	0.094991	0.264435	8748.264648
4718.700397	0.095006	0.264435	8848.116211
4718.701321	0.094955	0.264435	8935.854492
4718.702186	0.094948	0.264435	9017.984375
4718.703241	0.094958	0.264435	9118.166016
4718.704250	0.094871	0.264435	9213.890625
4719.787451	1.029448	0.308093	437.515472
4719.788368	1.524752	0.308093	1835.713257
4719.789333	1.518494	0.308093	3301.059570
4719.790263	1.478265	0.308093	4675.846680
4719.791131	1.439934	0.308093	5925.709473
4719.792102	1.400526	0.308093	7285.620117
4719.793039	1.033077	0.308093	8253.613281
4719.793921	0.131049	0.308093	8369.198242
4719.794795	0.094860	0.308093	8452.105469
4719.795760	0.094966	0.308093	8543.747070
4719.796705	0.094969	0.308093	8633.493164
4719.797598	0.094980	0.308093	8718.310547
4719.798507	0.094984	0.308093	8804.651367
4719.799457	0.094951	0.308093	8894.855469
4719.800379	0.094988	0.308093	8982.434570
4719.801244	0.095002	0.308093	9064.611328
4719.802182	0.094929	0.308093	9153.655273
4720.720873	1.047942	0.275134	496.724457
4720.721830	1.529421	0.275134	1960.380737
4720.722761	1.516871	0.275134	3372.587891
4720.723636	1.478459	0.275134	4666.240234
4720.724590	1.437195	0.275134	6037.324219
4720.725531	1.397534	0.275134	7352.403809
4720.726472	0.984163	0.275134	8278.500977
4720.727331	0.125717	0.275134	8386.491211
4720.728284	0.094845	0.275134	8476.878906
4720.729239	0.094940	0.275134	8567.546875
4720.730134	0.094944	0.275134	8652.521484
4720.731047	0.094929	0.275134	8739.191406
4720.731973	0.094937	0.275134	8827.102539
4720.732915	0.094918	0.275134	8916.515625
4720.733806	0.094995	0.275134	9001.156250
4720.734738	0.094940	0.275134	9089.640625
4720.735684	0.094955	0.275134	9179.467773
4721.799611	1.024145	0.299944	430.141113
4721.800563	1.525404	0.299944	1882.325684
4721.801461	1.519413	0.299944	3246.758301
4721.802386	1.479558	0.299944	4615.349609
4721.803273	1.441088	0.299944	5893.594238
4721.804180	1.403624	0.299944	7166.681641
4721.805151	1.102013	0.299944	8236.736328
4721.806071	0.141526	0.299944	8366.940430
4721.806932	0.094779	0.299944	8448.544922
4721.807861	0.094900	0.299944	8536.707031
4721.808786	0.094904	0.299944	8624.493164
4721.809715	0.094969	0.299944	8712.719727
4721.810592	0.094882	0.299944	8795.930664
4721.811558	0.094911	0.299944	8887.614258
4721.812478	0.094900	0.299944	8974.921875
4721.813356	0.094999	0.299944	9058.331055
4721.814311	0.094922	0.299944	9148.981445
4722.769346	1.037626	0.305193	446.179047
4722.770399	1.530623	0.305193	2057.924561
4722.771282	1.515908	0.305193	3396.471680
4722.772164	1.477379	0.305193	4699.520020
4722.773108	1.437030	0.305193	6056.076172
4722.774085	1.396106	0.305193	7420.071777
4722.774997	0.963889	0.305193	8299.138672
4722.775877	0.118495	0.305193	8403.414062
4722.776736	0.094812	0.305193	8484.857422
4722.777727	0.094911	0.305193	8578.914062
4722.778648	0.094937	0.305193	8666.350586
4722.779514	0.094944	0.305193	8748.572266
4722.780526	0.094937	0.305193	8844.648437
4722.781402	0.094929	0.305193	8927.806641
4722.782315	0.094918	0.305193	9014.466797
4722.783183	0.094944	0.305193	9096.877930
4722.784168	0.094991	0.305193	9190.444336
4723.812900	1.119005	0.333202	577.406616
4723.813895	1.533479	0.333202	2103.218262
4723.814791	1.513945	0.333202	3459.713379
4723.815789	1.470688	0.333202	4927.460449
4723.816841	1.425967	0.333202	6427.577637
4723.817725	1.388705	0.333202	7655.192383
4723.818613	0.735352	0.333202	8308.184570
4723.819697	0.097939	0.333202	8414.350586
4723.820649	0.094878	0.333202	8504.674805
4723.821511	0.094878	0.333202	8586.459961
4723.822513	0.094948	0.333202	8681.597656
4723.823578	0.094937	0.333202	8782.705078
4723.824460	0.094966	0.333202	8866.464844
4723.825374	0.094977	0.333202	8953.273437
4723.826442	0.094896	0.333202	9054.623047
4723.827388	0.094926	0.333202	9144.422852
4723.828260	0.094991	0.333202	9227.255859
4724.814270	1.028368	0.338491	433.971252
4724.815138	1.522467	0.338491	1755.472656
4724.816235	1.514678	0.338491	3417.073975
4724.817203	1.472897	0.338491	4842.837891
4724.818073	1.435302	0.338491	6091.550293
4724.819108	1.392173	0.338491	7532.449219
4724.820152	0.664922	0.338491	8226.627930
4724.821041	0.099239	0.338491	8314.851562
4724.821965	0.094944	0.338491	8402.580078
4724.823039	0.094958	0.338491	8504.565430
4724.823985	0.094926	0.338491	8594.365234
4724.824848	0.094926	0.338491	8676.286133
4724.825883	0.094915	0.338491	8774.522461
4724.826893	0.094867	0.338491	8870.337891
4724.827780	0.094918	0.338491	8954.530273
4724.828733	0.094962	0.338491	9045.029297
4724.829767	0.094999	0.338491	9143.257812
4725.817785	1.022362	0.373332	431.436798
4725.818765	1.523924	0.373332	1924.882690
4725.819819	1.512100	0.373332	3518.635742
4725.820747	1.471333	0.373332	4884.032715
4725.821613	1.432749	0.373332	6124.793457
4725.822696	1.389086	0.373332	7629.173340
4725.823695	0.607412	0.373332	8235.978516
4725.824576	0.098822	0.373332	8323.041016
4725.825558	0.094882	0.373332	8416.214844
4725.826619	0.094904	0.373332	8516.907227
4725.827500	0.094918	0.373332	8600.530273
4725.828357	0.094995	0.373332	8681.941406
4725.829435	0.094969	0.373332	8784.318359
4725.830384	0.094944	0.373332	8874.419922
4725.831257	0.094999	0.373332	8957.353516
4725.832252	0.094958	0.373332	9051.836914
4725.833298	0.094973	0.373332	9151.178711
4726.862296	1.053662	0.334032	468.879608
4726.863211	1.527704	0.334032	1866.728638
4726.864094	1.520614	0.334032	3209.430664
4726.865071	1.479089	0.334032	4654.500977
4726.865981	1.438436	0.334032	5963.478027
4726.866906	1.400647	0.334032	7259.076172
4726.867772	1.071760	0.334032	8187.220703
4726.868889	0.118557	0.334032	8319.649414
4726.869923	0.094882	0.334032	8417.756836
4726.870796	0.094918	0.334032	8500.620117
4726.871678	0.095006	0.334032	8584.415039
4726.872757	0.094951	0.334032	8686.867187
4726.873708	0.094933	0.334032	8777.148437
4726.874565	0.094900	0.334032	8858.477539
4726.875577	0.094977	0.334032	8954.593750
4726.876609	0.094926	0.334032	9052.556641
4726.877497	0.094995	0.334032	9136.912109
4727.834556	1.029587	0.370472	435.515472
4727.835602	1.529312	0.370472	2035.175415
4727.836616	1.510957	0.370472	3567.285645
4727.837504	1.471915	0.370472	4874.346680
4727.838454	1.431423	0.370472	6234.198730
4727.839500	1.388108	0.370472	7686.159668
4727.840433	0.662014	0.370472	8303.819336
4727.841289	0.100496	0.370472	8389.843750
4727.842342	0.094980	0.370472	8489.858398
4727.843351	0.094988	0.370472	8585.701172
4727.844227	0.094995	0.370472	8668.916992
4727.845183	0.094995	0.370472	8759.732422
4727.846237	0.094915	0.370472	8859.772461
4727.847152	0.094977	0.370472	8946.675781
4727.848017	0.094937	0.370472	9028.795898
4727.849078	0.094977	0.370472	9129.566406
4727.850071	0.094937	0.370472	9223.837891
4728.893908	1.046459	0.364538	458.348907
4728.894781	1.524393	0.364538	1789.144287
4728.895645	1.523035	0.364538	3105.046387
4728.896629	1.481005	0.364538	4562.354980
4728.897557	1.440802	0.364538	5899.418945
4728.898462	1.402537	0.364538	7168.714844
4728.899345	1.138444	0.364538	8173.960449
4728.900331	0.145979	0.364538	8317.895508
4728.901249	0.094856	0.364538	8404.973633
4728.902135	0.094988	0.364538	8489.132812
4728.903044	0.094977	0.364538	8575.466797
4728.903974	0.094878	0.364538	8663.703125
4728.904915	0.094926	0.364538	8753.028320
4728.905798	0.094995	0.364538	8836.909180
4728.906727	0.094911	0.364538	8925.081055
4728.907672	0.094889	0.364538	9014.750977
4728.908539	0.094849	0.364538	9096.984375
4729.857981	1.053388	0.392713	449.796478
4729.859091	1.531761	0.392713	2150.051514
4729.860057	1.510009	0.392713	3608.719727
4729.860934	1.471205	0.392713	4898.966309
4729.861966	1.427091	0.392713	6371.724121
4729.862995	1.384775	0.392713	7796.658203
4729.863898	0.593815	0.392713	8332.873047
4729.864835	0.098829	0.392713	8425.476562
4729.865884	0.094940	0.392713	8525.068359
4729.866824	0.094948	0.392713	8614.319336
4729.867685	0.094948	0.392713	8696.069336
4729.868728	0.095032	0.392713	8795.187500
4729.869747	0.094867	0.392713	8891.856445
4729.870634	0.094856	0.392713	8975.994141
4729.871496	0.095002	0.392713	9057.886719
4729.872550	0.094988	0.392713	9158.003906
4729.873481	0.094980	0.392713	9246.430664
4730.922426	1.037227	0.375834	438.746826
4730.923382	1.528440	0.375834	1899.935425
4730.924305	1.517897	0.375834	3300.954102
4730.925198	1.479177	0.375834	4621.859375
4730.926135	1.439901	0.375834	5971.046875
4730.927070	1.399944	0.375834	7279.994141
4730.928012	1.041588	0.375834	8261.169922
4730.928903	0.130426	0.375834	8377.379883
4730.929820	0.094889	0.375834	8464.392578
4730.930776	0.094988	0.375834	8555.201172
4730.931695	0.094929	0.375834	8642.441406
4730.932559	0.094980	0.375834	8724.504883
4730.933519	0.094893	0.375834	8815.601562
4730.934426	0.094922	0.375834	8901.695312
4730.935351	0.094896	0.375834	8989.474609
4730.936223	0.094984	0.375834	9072.300781
4730.937191	0.094926	0.375834	9164.188477
4731.887102	1.097893	0.416810	542.359192
4731.888059	1.529535	0.416810	2006.124023
4731.888964	1.515542	0.416810	3377.689453
4731.889861	1.476856	0.416810	4702.428711
4731.890772	1.437111	0.416810	6011.636719
4731.891727	1.398084	0.416810	7346.806641
4731.892647	1.018015	0.416810	8283.380859
4731.893523	0.128071	0.416810	8395.571289
4731.894478	0.094805	0.416810	8486.109375
4731.895401	0.094944	0.416810	8573.742187
4731.896325	0.094926	0.416810	8661.453125
4731.897185	0.094896	0.416810	8743.063477
4731.898138	0.094885	0.416810	8833.489258
4731.899056	0.094929	0.416810	8920.633789
4731.899934	0.094882	0.416810	9003.939453
4731.900877	0.094955	0.416810	9093.481445
4731.901820	0.094885	0.416810	9182.958008
4732.947927	1.068984	0.386275	479.973999
4732.948824	1.527155	0.386275	1849.831665
4732.949691	1.520801	0.386275	3168.365967
4732.950674	1.479280	0.386275	4622.498047
4732.951623	1.438711	0.386275	5987.834961
4732.952510	1.401453	0.386275	7230.923340
4732.953442	1.093400	0.386275	8249.971680
4732.954376	0.136714	0.386275	8377.662109
4732.955297	0.094797	0.386275	8464.970703
4732.956178	0.094933	0.386275	8548.606445
4732.957106	0.094838	0.386275	8636.616211
4732.958063	0.094904	0.386275	8727.438477
4732.958984	0.094893	0.386275	8814.834961
4732.959845	0.094856	0.386275	8896.505859
4732.960828	0.094845	0.386275	8989.738281
4732.961782	0.094874	0.386275	9080.248047
4732.962675	0.094907	0.386275	9165.000000
4733.918747	1.113618	0.433898	562.377136
4733.919691	1.531406	0.433898	2008.024658
4733.920570	1.516666	0.433898	3341.174316
4733.921512	1.475665	0.433898	4731.250977
4733.922589	1.429779	0.433898	6271.123047
4733.923488	1.392048	0.433898	7522.574219
4733.924357	0.902644	0.433898	8306.971680
4733.925398	0.104011	0.433898	8415.247070
4733.926348	0.094805	0.433898	8505.311523
4733.927222	0.094900	0.433898	8588.253906
4733.928126	0.094889	0.433898	8674.033203
4733.929203	0.094911	0.433898	8776.251953
4733.930081	0.094915	0.433898	8859.586914
4733.930944	0.094948	0.433898	8941.526367
4733.931833	0.094918	0.433898	9025.908203
4733.932855	0.094958	0.433898	9122.956055
4733.933749	0.094907	0.433898	9207.802734
4734.969799	1.040508	0.420951	452.620880
4734.970673	1.523815	0.420951	1784.434937
4734.971539	1.522057	0.420951	3102.536133
4734.972577	1.478936	0.420951	4637.671387
4734.973466	1.440201	0.420951	5918.010254
4734.974336	1.403544	0.420951	7139.093262
4734.975296	1.099427	0.420951	8194.543945
4734.976254	0.140149	0.420951	8328.806641
4734.977165	0.094819	0.420951	8415.187500
4734.978044	0.094969	0.420951	8498.666016
4734.979068	0.094904	0.420951	8595.847656
4734.979962	0.094904	0.420951	8680.691406
4734.980884	0.094904	0.420951	8768.192383
4734.981746	0.094900	0.420951	8849.996094
4734.982767	0.094849	0.420951	8946.836914
4734.983716	0.094969	0.420951	9036.962891
4734.984605	0.095006	0.420951	9121.422852
4735.952837	1.031803	0.460706	444.707092
4735.953714	1.523273	0.460706	1780.617187
4735.954586	1.522599	0.460706	3108.323242
4735.955527	1.483502	0.460706	4504.298828
4735.956466	1.441381	0.460706	5857.755371
4735.957391	1.402980	0.460706	7155.511719
4735.958260	1.148884	0.460706	8153.892090
4735.959304	0.137498	0.460706	8297.439453
4735.960183	0.094772	0.460706	8380.744141
4735.961082	0.095013	0.460706	8466.161133
4735.961957	0.094944	0.460706	8549.237305
4735.962950	0.094929	0.460706	8643.501953
4735.963872	0.094991	0.460706	8731.083984
4735.964746	0.094988	0.460706	8814.103516
4735.965760	0.094922	0.460706	8910.354492
4735.966652	0.094911	0.460706	8995.014648
4735.967565	0.094900	0.460706	9081.658203
4736.992282	1.107015	0.457979	571.219910
4736.993159	1.529330	0.457979	1912.442139
4736.994028	1.519376	0.457979	3232.780273
4736.995053	1.474966	0.457979	4744.620117
4736.996017	1.433613	0.457979	6126.623047
4736.996902	1.396791	0.457979	7362.782715
4736.997806	0.952009	0.457979	8223.399414
4736.998884	0.105428	0.457979	8337.051758
4736.999774	0.094823	0.457979	8421.444336
4737.000635	0.094984	0.457979	8503.225586
4737.001661	0.095028	0.457979	8600.724609
4737.002624	0.094911	0.457979	8692.124023
4737.003499	0.095006	0.457979	8775.253906
4737.004353	0.094926	0.457979	8856.320312
4737.005456	0.095024	0.457979	8961.131836
4737.006340	0.094885	0.457979	9045.010742
4737.007213	0.094874	0.457979	9127.835937
4737.986493	1.028419	0.492180	436.049713
4737.987452	1.522786	0.492180	1896.401123
4737.988501	1.513022	0.492180	3483.561523
4737.989423	1.472245	0.492180	4840.971191
4737.990291	1.434060	0.492180	6085.735352
4737.991370	1.390221	0.492180	7585.783691
4737.992384	0.630216	0.492180	8224.822266
4737.993261	0.099298	0.492180	8311.906250
4737.994249	0.095002	0.492180	8405.768555
4737.995278	0.095032	0.492180	8503.556641
4737.996183	0.094940	0.492180	8589.477539
4737.997039	0.094944	0.492180	8670.749023
4737.998126	0.095072	0.492180	8774.092773
4737.999112	0.094944	0.492180	8867.707031
4737.999989	0.095021	0.492180	8951.040039
4738.000855	0.095002	0.492180	9033.312500
4738.001941	0.095013	0.492180	9136.497070
4739.015638	1.066187	0.459288	477.651581
4739.016514	1.525422	0.459288	1813.921631
4739.017375	1.521226	0.459288	3123.696777
4739.018459	1.476237	0.459288	4723.937500
4739.019376	1.436309	0.459288	6041.032227
4739.020253	1.399698	0.459288	7268.567871
4739.021249	0.962446	0.459288	8227.164062
4739.022249	0.109512	0.459288	8336.675781
4739.023139	0.094863	0.459288	8421.104492
4739.023997	0.094991	0.459288	8502.607422
4739.025049	0.095043	0.459288	8602.592773
4739.025970	0.094984	0.459288	8690.073242
4739.026844	0.095043	0.459288	8773.140625
4739.027812	0.095024	0.459288	8865.124023
4739.028836	0.094980	0.459288	8962.383789
4739.029723	0.094926	0.459288	9046.583008
4739.030584	0.095002	0.459288	9128.379883
4740.013540	1.091733	0.498963	507.656067
4740.014471	1.529044	0.498963	1931.196289
4740.015355	1.518852	0.498963	3273.861816
4740.016279	1.478500	0.498963	4639.995605
4740.017245	1.437085	0.498963	6028.219727
4740.018174	1.398413	0.498963	7327.345703
4740.019044	1.083977	0.498963	8270.405273
4740.020019	0.133802	0.498963	8400.862305
4740.020915	0.094856	0.498963	8485.853516
4740.021826	0.094984	0.498963	8572.383789
4740.022696	0.094951	0.498963	8654.991211
4740.023661	0.094995	0.498963	8746.661133
4740.024614	0.094918	0.498963	8837.118164
4740.025501	0.094962	0.498963	8921.349609
4740.026408	0.094933	0.498963	9007.454102
4740.027369	0.094973	0.498963	9098.723633
4740.028294	0.094929	0.498963	9186.533203
4741.043186	1.091686	0.509997	503.267181
4741.044113	1.528260	0.509997	1919.964722
4741.044987	1.519266	0.509997	3247.803467
4741.045910	1.478533	0.509997	4612.489258
4741.046867	1.437594	0.509997	5988.266602
4741.047796	1.399164	0.509997	7288.089844
4741.048678	1.080487	0.509997	8241.079102
4741.049663	0.129239	0.509997	8368.379883
4741.050611	0.094915	0.509997	8458.358398
4741.051513	0.094999	0.509997	8544.046875
4741.052380	0.095046	0.509997	8626.452148
4741.053328	0.094973	0.509997	8716.486328
4741.054272	0.094937	0.509997	8806.106445
4741.055146	0.094991	0.509997	8889.128906
4741.056052	0.094995	0.509997	8975.194336
4741.057000	0.094955	0.509997	9065.211914
4741.057923	0.094951	0.509997	9152.851562
4742.041052	1.064531	0.549889	477.974518
4742.041934	1.525184	0.549889	1823.187134
4742.042867	1.518732	0.549889	3240.163818
4742.043810	1.477841	0.549889	4633.767578
4742.044739	1.437902	0.549889	5969.578125
4742.045621	1.400709	0.549889	7205.003906
4742.046586	1.064407	0.549889	8232.156250
4742.047538	0.127463	0.549889	8353.500977
4742.048432	0.094893	0.549889	8438.334961
4742.049299	0.094929	0.549889	8520.638672
4742.050264	0.094871	0.549889	8612.188477
4742.051188	0.094889	0.549889	8699.866211
4742.052047	0.094915	0.549889	8781.397461
4742.053014	0.094915	0.549889	8873.179687
4742.053960	0.094863	0.549889	8962.919922
4742.054840	0.094980	0.549889	9046.502930
4742.055709	0.094893	0.549889	9128.964844
4743.073854	1.144768	0.514633	637.635864
4743.074923	1.533351	0.514633	2276.787842
4743.075819	1.508591	0.514633	3628.485596
4743.076716	1.467957	0.514633	4945.242676
4743.077808	1.422323	0.514633	6498.419434
4743.078765	1.383252	0.514633	7822.191406
4743.079646	0.585158	0.514633	8337.714844
4743.080672	0.096500	0.514633	8436.723633
4743.081700	0.094911	0.514633	8534.291992
4743.082587	0.094926	0.514633	8618.491211
4743.083448	0.094951	0.514633	8700.244141
4743.084504	0.094948	0.514633	8800.508789
4743.085447	0.094933	0.514633	8890.030273
4743.086314	0.094984	0.514633	8972.381836
4743.087200	0.094933	0.514633	9056.492187
4743.088269	0.094911	0.514633	9157.952148
4743.089150	0.094951	0.514633	9241.604492
4744.064439	1.022172	0.567469	430.334259
4744.065364	1.523635	0.567469	1839.696899
4744.066340	1.516765	0.567469	3320.059570
4744.067271	1.476497	0.567469	4694.677734
4744.068136	1.438565	0.567469	5939.036133
4744.069116	1.398545	0.567469	7309.610352
4744.070078	0.989561	0.567469	8261.567383
4744.070971	0.123259	0.567469	8371.637695
4744.071860	0.094841	0.567469	8455.951172
4744.072803	0.094911	0.567469	8545.452148
4744.073732	0.094973	0.567469	8633.682617
4744.074616	0.094933	0.567469	8717.603516
4744.075530	0.094944	0.567469	8804.381836
4744.076485	0.095024	0.567469	8895.129883
4744.077405	0.094915	0.567469	8982.451172
4744.078275	0.094966	0.567469	9065.071289
4744.079218	0.094904	0.567469	9154.565430
4745.105362	1.044064	0.542397	459.388031
4745.106242	1.524756	0.542397	1801.173218
4745.107200	1.519072	0.542397	3256.444336
4745.108214	1.474940	0.542397	4752.033691
4745.109101	1.436561	0.542397	6026.263672
4745.109969	1.399603	0.542397	7241.119141
4745.111038	0.895463	0.542397	8198.369141
4745.111961	0.108640	0.542397	8298.643555
4745.112830	0.094933	0.542397	8381.140625
4745.113781	0.094995	0.542397	8471.481445
4745.114825	0.094958	0.542397	8570.618164
4745.115716	0.095006	0.542397	8655.268555
4745.116580	0.094900	0.542397	8737.261719
4745.117629	0.095013	0.542397	8836.930664
4745.118578	0.094944	0.542397	8927.032227
4745.119455	0.095002	0.542397	9010.349609
4745.120376	0.094991	0.542397	9097.836914
4746.087486	1.155908	0.608997	629.969971
4746.088446	1.532585	0.608997	2101.251953
4746.089331	1.513524	0.608997	3440.720703
4746.090228	1.472908	0.608997	4761.918945
4746.091329	1.427897	0.608997	6334.033203
4746.092227	1.390085	0.608997	7582.330078
4746.093111	0.831786	0.608997	8317.628906
4746.094035	0.108201	0.608997	8417.606445
4746.095037	0.094896	0.608997	8512.692383
4746.095950	0.095024	0.608997	8599.449219
4746.096814	0.094980	0.608997	8681.512695
4746.097918	0.095039	0.608997	8786.435547
4746.098811	0.094926	0.608997	8871.204102
4746.099683	0.094955	0.608997	8954.004883
4746.100538	0.094988	0.608997	9035.219727
4746.101575	0.094893	0.608997	9133.623047
4746.102467	0.094984	0.608997	9218.348633
4747.139044	1.062404	0.548588	478.081604
4747.139956	1.527213	0.548588	1870.899902
4747.140831	1.520142	0.548588	3201.023926
4747.141757	1.479291	0.548588	4570.847168
4747.142710	1.438385	0.548588	5941.627930
4747.143640	1.400087	0.548588	7243.708496
4747.144525	1.103558	0.548588	8220.357422
4747.145510	0.133140	0.548588	8351.500000
4747.146458	0.094871	0.548588	8441.437500
4747.147348	0.094984	0.548588	8525.973633
4747.148245	0.094944	0.548588	8611.138672
4747.149172	0.094984	0.548588	8699.189453
4747.150118	0.094933	0.548588	8788.996094
4747.150996	0.094977	0.548588	8872.385742
4747.151905	0.094929	0.548588	8958.676758
4747.152859	0.094951	0.548588	9049.259766
4747.153783	0.094948	0.548588	9136.991211
4748.113406	1.060774	0.643375	522.961487
4748.114471	1.531963	0.643375	2154.501953
4748.115369	1.511082	0.643375	3511.453125
4748.116241	1.472571	0.643375	4795.534668
4748.117270	1.428472	0.643375	6265.432129
4748.118242	1.388438	0.643375	7614.993164
4748.119124	0.784343	0.643375	8306.784180
4748.120011	0.105425	0.643375	8400.295898
4748.121112	0.094926	0.643375	8504.808594
4748.121998	0.094951	0.643375	8588.935547
4748.122859	0.094988	0.643375	8670.719727
4748.123898	0.095043	0.643375	8769.468750
4748.124859	0.095010	0.643375	8860.773437
4748.125726	0.094907	0.643375	8943.057617
4748.126583	0.094973	0.643375	9024.449219
4748.127686	0.095024	0.643375	9129.260742
4748.128565	0.094944	0.643375	9212.716797
4749.168571	1.042302	0.577620	440.893860
4749.169549	1.528693	0.577620	1935.955322
4749.170477	1.516578	0.577620	3343.340088
4749.171357	1.478189	0.577620	4644.145996
4749.172267	1.438685	0.577620	5953.349609
4749.173228	1.399222	0.577620	7298.002441
4749.174162	1.046697	0.577620	8275.617187
4749.175028	0.136450	0.577620	8393.783203
4749.175989	0.094841	0.577620	8484.925781
4749.176892	0.094926	0.577620	8570.643555
4749.177814	0.094980	0.577620	8658.215820
4749.178687	0.094918	0.577620	8741.079102
4749.179660	0.094962	0.577620	8833.477539
4749.180606	0.094922	0.577620	8923.273437
4749.181495	0.094958	0.577620	9007.691406
4749.182407	0.094984	0.577620	9094.317383
4749.183361	0.094874	0.577620	9184.827148
4750.140370	1.059518	0.679565	466.187866
4750.141251	1.524360	0.679565	1809.149414
4750.142174	1.518889	0.679565	3211.083984
4750.143137	1.477906	0.679565	4634.307617
4750.144068	1.437294	0.679565	5972.428223
4750.144938	1.400728	0.679565	7191.061523
4750.145914	1.059349	0.679565	8224.986328
4750.146876	0.129122	0.679565	8349.202148
4750.147769	0.094852	0.679565	8433.905273
4750.148648	0.094955	0.679565	8517.370117
4750.149589	0.094980	0.679565	8606.747070
4750.150512	0.094944	0.679565	8694.379883
4750.151401	0.095010	0.679565	8778.843750
4750.152314	0.095010	0.679565	8865.587891
4750.153263	0.094958	0.679565	8955.703125
4750.154187	0.094944	0.679565	9043.431641
4750.155061	0.094904	0.679565	9126.376953
4751.195575	1.026185	0.619346	433.050171
4751.196611	1.529117	0.619346	2017.215698
4751.197640	1.509880	0.619346	3570.882812
4751.198538	1.470388	0.619346	4891.291504
4751.199506	1.429259	0.619346	6274.814453
4751.200571	1.385262	0.619346	7750.119141
4751.201492	0.598458	0.619346	8301.298828
4751.202361	0.098423	0.619346	8386.828125
4751.203451	0.095079	0.619346	8490.464844
4751.204442	0.094948	0.619346	8584.557617
4751.205332	0.094951	0.619346	8669.064453
4751.206307	0.095090	0.619346	8761.777344
4751.207363	0.094940	0.619346	8862.034180
4751.208271	0.095010	0.619346	8948.302734
4751.209135	0.095017	0.619346	9030.397461
4751.210229	0.095021	0.619346	9134.350586
4751.211195	0.094951	0.619346	9226.073242
4752.172514	1.043368	0.722233	461.168640
4752.173389	1.523650	0.722233	1794.362305
4752.174283	1.520072	0.722233	3153.306641
4752.175228	1.478892	0.722233	4550.859375
4752.176192	1.437565	0.722233	5936.671875
4752.177085	1.400900	0.722233	7187.675293
4752.177998	1.104020	0.722233	8195.645508
4752.178967	0.135919	0.722233	8327.351562
4752.179891	0.094841	0.722233	8414.985352
4752.180752	0.094922	0.722233	8496.712891
4752.181710	0.094948	0.722233	8587.672852
4752.182657	0.094893	0.722233	8677.536133
4752.183543	0.094948	0.722233	8761.659180
4752.184405	0.094955	0.722233	8843.509766
4752.185361	0.094915	0.722233	8934.248047
4752.186299	0.094907	0.722233	9023.271484
4752.187189	0.094929	0.722233	9107.758789
4753.216956	1.045869	0.678856	447.631989
4753.217933	1.528905	0.678856	1941.372192
4753.218857	1.516457	0.678856	3342.578857
4753.219738	1.477881	0.678856	4644.591797
4753.220700	1.437404	0.678856	6027.374023
4753.221650	1.397816	0.678856	7355.299316
4753.222586	0.987836	0.678856	8279.913086
4753.223450	0.124937	0.678856	8387.858398
4753.224438	0.094812	0.678856	8481.532227
4753.225397	0.094980	0.678856	8572.618164
4753.226296	0.094937	0.678856	8657.965820
4753.227409	0.094900	0.678856	8763.589844
4753.228301	0.094944	0.678856	8848.279297
4753.229221	0.094962	0.678856	8935.644531
4753.230081	0.094937	0.678856	9017.290039
4753.231071	0.094984	0.678856	9111.324219
4753.231999	0.094918	0.678856	9199.408203
4754.206184	1.044309	0.757578	484.559387
4754.207070	1.525770	0.757578	1836.391846
4754.207966	1.518889	0.757578	3197.316406
4754.208918	1.477192	0.757578	4603.603516
4754.209880	1.436085	0.757578	5985.117187
4754.210780	1.399039	0.757578	7244.252441
4754.211698	1.058156	0.757578	8215.639648
4754.212666	0.128632	0.757578	8340.155273
4754.213588	0.094775	0.757578	8427.538086
4754.214453	0.094929	0.757578	8509.651367
4754.215420	0.094904	0.757578	8601.422852
4754.216315	0.094882	0.757578	8686.341797
4754.217238	0.094977	0.757578	8774.005859
4754.218109	0.094805	0.757578	8856.581055
4754.219082	0.094933	0.757578	8948.951172
4754.220026	0.094856	0.757578	9038.495117
4754.220912	0.094849	0.757578	9122.531250
4755.240449	1.092451	0.682167	537.486023
4755.241327	1.527609	0.682167	1878.726318
4755.242196	1.519614	0.682167	3199.270996
4755.243223	1.474761	0.682167	4713.850586
4755.244186	1.433720	0.682167	6094.522461
4755.245064	1.396831	0.682167	7320.939941
4755.245984	0.971235	0.682167	8214.476562
4755.247059	0.107040	0.682167	8329.543945
4755.247950	0.094860	0.682167	8414.063477
4755.248811	0.094933	0.682167	8495.800781
4755.249845	0.094973	0.682167	8594.002930
4755.250819	0.094962	0.682167	8686.496094
4755.251694	0.094918	0.682167	8769.549805
4755.252557	0.094940	0.682167	8851.483398
4755.253667	0.095028	0.682167	8956.964844
4755.254548	0.094904	0.682167	9040.575195
4755.255408	0.094948	0.682167	9122.230469
4756.244405	1.031034	0.727736	434.065247
4756.245368	1.526235	0.727736	1903.829834
4756.246321	1.515370	0.727736	3347.977295
4756.247220	1.476368	0.727736	4675.232422
4756.248134	1.437030	0.727736	5988.677734
4756.249095	1.397260	0.727736	7331.444336
4756.250033	1.004802	0.727736	8273.949219
4756.250907	0.124948	0.727736	8383.153320
4756.251861	0.094812	0.727736	8473.603516
4756.252796	0.094900	0.727736	8562.334961
4756.253724	0.094885	0.727736	8650.388672
4756.254583	0.094856	0.727736	8731.870117
4756.255556	0.094874	0.727736	8824.182617
4756.256485	0.094863	0.727736	8912.310547
4756.257379	0.094926	0.727736	8997.173828
4756.258294	0.094911	0.727736	9084.017578
4756.259230	0.094893	0.727736	9172.836914
4757.260282	1.091656	0.683706	523.995117
4757.261166	1.527689	0.683706	1874.472290
4757.262121	1.516252	0.683706	3322.493164
4757.263171	1.470304	0.683706	4866.312500
4757.264110	1.430336	0.683706	6209.397461
4757.264979	1.393616	0.683706	7420.449219
4757.266063	0.712372	0.683706	8192.660156
4757.267067	0.097507	0.683706	8290.557617
4757.267953	0.094896	0.683706	8374.635742
4757.268924	0.095028	0.683706	8466.908203
4757.269961	0.095013	0.683706	8565.437500
4757.270879	0.094922	0.683706	8652.576172
4757.271738	0.095006	0.683706	8734.186523
4757.272807	0.094984	0.683706	8835.724609
4757.273807	0.094922	0.683706	8930.646484
4757.274681	0.094995	0.683706	9013.671875
4757.275679	0.094980	0.683706	9108.461914
4758.287805	1.029760	0.675541	438.677551
4758.288770	1.522914	0.675541	1908.289307
4758.289825	1.511763	0.675541	3503.198975
4758.290736	1.471289	0.675541	4843.543457
4758.291613	1.433584	0.675541	6100.796875
4758.292587	1.393989	0.675541	7458.542480
4758.293615	0.755222	0.675541	8234.911133
4758.294490	0.102495	0.675541	8324.594727
4758.295355	0.094885	0.675541	8406.670898
4758.296406	0.094933	0.675541	8506.445312
4758.297338	0.094889	0.675541	8594.881836
4758.298211	0.094922	0.675541	8677.749023
4758.299162	0.094926	0.675541	8768.023437
4758.300200	0.094882	0.675541	8866.510742
4758.301092	0.094900	0.675541	8951.161133
4758.301956	0.094871	0.675541	9033.128906
4758.303019	0.094969	0.675541	9134.081055
4759.275962	1.022900	0.669309	430.641052
4759.276876	1.521614	0.669309	1821.395996
4759.277820	1.517930	0.669309	3254.321777
4759.278765	1.476877	0.669309	4649.970703
4759.279663	1.438264	0.669309	5941.532227
4759.280593	1.399270	0.669309	7242.853516
4759.281559	1.026017	0.669309	8233.985352
4759.282490	0.123779	0.669309	8349.223633
4759.283352	0.094856	0.669309	8430.989258
4759.284303	0.094918	0.669309	8521.256836
4759.285223	0.094889	0.669309	8608.554687
4759.286144	0.094940	0.669309	8695.994141
4759.287007	0.094882	0.669309	8777.876953
4759.287975	0.094922	0.669309	8869.761719
4759.288922	0.094863	0.669309	8959.597656
4759.289819	0.094929	0.669309	9044.749023
4759.290717	0.094933	0.669309	9129.999023
4760.329756	1.108890	0.734354	561.098511
4760.330651	1.529586	0.734354	1930.078125
4760.331521	1.518109	0.734354	3250.833008
4760.332538	1.474611	0.734354	4750.511719
4760.333535	1.431204	0.734354	6177.421875
4760.334419	1.393967	0.734354	7409.688965
4760.335292	0.944546	0.734354	8234.277344
4760.336387	0.103586	0.734354	8347.704102
4760.337286	0.094827	0.734354	8432.953125
4760.338163	0.094904	0.734354	8516.183594
4760.339142	0.095002	0.734354	8609.191406
4760.340143	0.094940	0.734354	8704.226562
4760.341031	0.094918	0.734354	8788.513672
4760.341895	0.094988	0.734354	8870.583008
4760.342970	0.094991	0.734354	8972.699219
4760.343889	0.094893	0.734354	9059.905273
4760.344763	0.094926	0.734354	9142.870117
4761.295304	1.044239	0.676242	458.421112
4761.296405	1.531124	0.676242	2144.188965
4761.297294	1.512330	0.676242	3488.650635
4761.298158	1.474164	0.676242	4762.328125
4761.299235	1.428256	0.676242	6300.559570
4761.300212	1.387903	0.676242	7656.540527
4761.301092	0.765326	0.676242	8330.027344
4761.301957	0.103986	0.676242	8419.974609
4761.303062	0.094882	0.676242	8524.818359
4761.303954	0.094977	0.676242	8609.538086
4761.304828	0.094933	0.676242	8692.509766
4761.305813	0.094988	0.676242	8786.072266
4761.306798	0.094922	0.676242	8879.570312
4761.307690	0.094984	0.676242	8964.295898
4761.308548	0.094966	0.676242	9045.776367
4761.309641	0.094969	0.676242	9149.578125
4761.310547	0.094889	0.676242	9235.547852
4762.360773	1.037128	0.821559	447.002014
4762.361638	1.522313	0.821559	1763.802979
4762.362723	1.513861	0.821559	3406.342285
4762.363649	1.473182	0.821559	4770.509277
4762.364525	1.435203	0.821559	6027.746582
4762.365516	1.395004	0.821559	7410.195312
4762.366546	0.793539	0.821559	8227.540039
4762.367428	0.104451	0.821559	8319.666016
4762.368285	0.094904	0.821559	8400.998047
4762.369320	0.095046	0.821559	8499.371094
4762.370263	0.094933	0.821559	8588.892578
4762.371142	0.094882	0.821559	8672.293945
4762.372093	0.094984	0.821559	8762.624023
4762.373127	0.094915	0.821559	8860.765625
4762.374016	0.094922	0.821559	8945.151367
4762.374880	0.094962	0.821559	9027.198242
4762.375933	0.094969	0.821559	9127.201172
4763.320272	1.047502	0.710217	460.901062
4763.321136	1.522170	0.710217	1776.056396
4763.322240	1.512715	0.710217	3446.093750
4763.323241	1.468868	0.710217	4916.431152
4763.324126	1.430757	0.710217	6182.650879
4763.325128	1.390082	0.710217	7575.512695
4763.326169	0.630513	0.710217	8231.875977
4763.327066	0.098104	0.710217	8319.875000
4763.327922	0.094915	0.710217	8401.122070
4763.329043	0.095072	0.710217	8507.698242
4763.329998	0.094940	0.710217	8598.366211
4763.330865	0.094962	0.710217	8680.698242
4763.331904	0.095024	0.710217	8779.428711
4763.332944	0.094948	0.710217	8878.173828
4763.333835	0.094980	0.710217	8962.801758
4763.334756	0.094995	0.710217	9050.291992
4763.335822	0.094926	0.710217	9151.482422
4764.385721	1.023684	0.846583	431.994720
4764.386641	1.523375	0.846583	1833.499878
4764.387621	1.516329	0.846583	3319.502686
4764.388552	1.475771	0.846583	4693.445801
4764.389420	1.437550	0.846583	5941.239258
4764.390391	1.398615	0.846583	7299.293945
4764.391287	1.016477	0.846583	8210.057617
4764.392217	0.125471	0.846583	8326.746094
4764.393090	0.094878	0.846583	8409.574219
4764.394054	0.094937	0.846583	8501.092773
4764.394972	0.094918	0.846583	8588.227539
4764.395842	0.095006	0.846583	8670.882812
4764.396810	0.094904	0.846583	8762.749023
4764.397726	0.094951	0.846583	8849.724609
4764.398649	0.094948	0.846583	8937.361328
4764.399513	0.095013	0.846583	9019.453125
4764.400470	0.095021	0.846583	9110.387695
4765.352955	1.048447	0.800362	513.739136
4765.353888	1.528550	0.800362	1939.876099
4765.354825	1.513916	0.800362	3358.415527
4765.355720	1.475343	0.800362	4678.847656
4765.356637	1.435221	0.800362	5994.945312
4765.357607	1.395652	0.800362	7348.727539
4765.358539	0.969320	0.800362	8252.133789
4765.359406	0.121278	0.800362	8357.282227
4765.360362	0.094907	0.800362	8448.013672
4765.361286	0.094922	0.800362	8535.721680
4765.362165	0.095028	0.800362	8619.250977
4765.363211	0.094955	0.800362	8718.574219
4765.364159	0.094911	0.800362	8808.549805
4765.365090	0.094929	0.800362	8896.928711
4765.365946	0.094955	0.800362	8978.209961
4765.366891	0.095021	0.800362	9068.004883
4765.367846	0.094999	0.800362	9158.728516
4766.408127	1.029946	0.829463	438.757080
4766.409035	1.522042	0.829463	1820.771362
4766.409983	1.517208	0.829463	3259.084717
4766.410904	1.477159	0.829463	4619.548340
4766.411807	1.438458	0.829463	5918.476074
4766.412770	1.398871	0.829463	7265.588867
4766.413690	1.062393	0.829463	8242.990234
4766.414575	0.135007	0.829463	8362.471680
4766.415509	0.094874	0.829463	8451.083984
4766.416489	0.094893	0.829463	8544.079102
4766.417404	0.094874	0.829463	8630.888672
4766.418286	0.094929	0.829463	8714.616211
4766.419220	0.094955	0.829463	8803.303711
4766.420125	0.094918	0.829463	8889.205078
4766.421063	0.094907	0.829463	8978.228516
4766.421949	0.094995	0.829463	9062.394531
4766.422859	0.094977	0.829463	9148.823242
4767.389206	1.113684	0.860614	566.865173
4767.390100	1.529106	0.860614	1933.886475
4767.391024	1.515300	0.860614	3334.023926
4767.392102	1.468832	0.860614	4917.424805
4767.393049	1.427955	0.860614	6269.698242
4767.393930	1.391418	0.860614	7495.538086
4767.394875	0.816885	0.860614	8267.494141
4767.395923	0.099536	0.860614	8371.807617
4767.396802	0.094948	0.860614	8455.266602
4767.397659	0.094984	0.860614	8536.667969
4767.398672	0.094980	0.860614	8632.882812
4767.399626	0.094937	0.860614	8723.452148
4767.400497	0.094962	0.860614	8806.164062
4767.401385	0.095039	0.860614	8890.558594
4767.402476	0.095043	0.860614	8994.250000
4767.403367	0.095054	0.860614	9078.942383
4767.404228	0.094973	0.860614	9160.713867
4768.426463	1.062792	0.825438	488.884247
4768.427355	1.526070	0.825438	1850.139160
4768.428232	1.519860	0.825438	3183.056152
4768.429183	1.479423	0.825438	4589.987305
4768.430133	1.438228	0.825438	5956.303711
4768.431063	1.399373	0.825438	7257.720215
4768.431930	1.140326	0.825438	8246.382812
4768.432872	0.143104	0.825438	8381.187500
4768.433799	0.094904	0.825438	8469.163086
4768.434718	0.094904	0.825438	8556.379883
4768.435598	0.094871	0.825438	8639.866211
4768.436569	0.094922	0.825438	8732.035156
4768.437515	0.094948	0.825438	8821.855469
4768.438406	0.094937	0.825438	8906.444336
4768.439314	0.094955	0.825438	8992.663086
4768.440242	0.094962	0.825438	9080.788086
4768.441171	0.094944	0.825438	9168.991211
4769.426908	1.068131	0.857053	478.522736
4769.427788	1.524818	0.857053	1820.362671
4769.428648	1.519310	0.857053	3126.969482
4769.429624	1.478064	0.857053	4569.560059
4769.430558	1.438279	0.857053	5912.912598
4769.431451	1.401061	0.857053	7164.060059
4769.432391	1.116475	0.857053	8213.545898
4769.433348	0.138721	0.857053	8346.301758
4769.434272	0.094830	0.857053	8433.924805
4769.435150	0.094995	0.857053	8517.330078
4769.436120	0.094962	0.857053	8609.443359
4769.437058	0.094958	0.857053	8698.514648
4769.437983	0.094988	0.857053	8786.377930
4769.438841	0.094871	0.857053	8867.777344
4769.439805	0.094882	0.857053	8959.243164
4769.440730	0.094926	0.857053	9047.048828
4769.441624	0.094940	0.857053	9131.925781
4770.445262	1.050546	0.840931	463.290588
4770.446138	1.523815	0.840931	1798.152344
4770.447061	1.519208	0.840931	3200.381104
4770.448022	1.478357	0.840931	4621.082031
4770.448952	1.438202	0.840931	5958.609863
4770.449819	1.401262	0.840931	7173.503906
4770.450871	0.985825	0.840931	8210.591797
4770.451923	0.110420	0.840931	8326.753906
4770.452849	0.094926	0.840931	8414.655273
4770.453705	0.094955	0.840931	8495.936523
4770.454739	0.095006	0.840931	8594.172852
4770.455745	0.094955	0.840931	8689.697266
4770.456634	0.094885	0.840931	8774.049805
4770.457606	0.095105	0.840931	8866.492187
4770.458669	0.094955	0.840931	8967.428711
4770.459579	0.094977	0.840931	9053.857422
4770.460437	0.094904	0.840931	9135.285156
4771.463110	1.039867	0.814868	449.222504
4771.464069	1.523090	0.814868	1909.865479
4771.465135	1.510723	0.814868	3520.295898
4771.466066	1.469564	0.814868	4888.459961
4771.466932	1.431577	0.814868	6128.205566
4771.467995	1.388525	0.814868	7604.208008
4771.469018	0.606097	0.814868	8224.246094
4771.469897	0.098331	0.814868	8310.679687
4771.470888	0.094940	0.814868	8404.765625
4771.471933	0.094900	0.814868	8503.935547
4771.472816	0.094852	0.814868	8587.690430
4771.473690	0.094955	0.814868	8670.680664
4771.474683	0.095039	0.814868	8765.054687
4771.475688	0.094937	0.814868	8860.465820
4771.476575	0.094995	0.814868	8944.726562
4771.477435	0.094966	0.814868	9026.397461
4771.478513	0.095024	0.814868	9128.833984
4772.466115	1.039925	0.869504	448.207886
4772.466987	1.522958	0.869504	1776.226929
4772.467852	1.520288	0.869504	3091.276123
4772.468909	1.476899	0.869504	4652.358887
4772.469786	1.438447	0.869504	5913.876953
4772.470657	1.402280	0.869504	7135.263184
4772.471665	1.047609	0.869504	8191.252930
4772.472602	0.129987	0.869504	8313.050781
4772.473502	0.094995	0.869504	8398.546875
4772.474380	0.095024	0.869504	8481.978516
4772.475398	0.094995	0.869504	8578.683594
4772.476298	0.094977	0.869504	8664.163086
4772.477174	0.094940	0.869504	8747.331055
4772.478098	0.094991	0.869504	8835.103516
4772.479088	0.094929	0.869504	8929.083008
4772.480003	0.094933	0.869504	9015.946289
4772.480878	0.094951	0.869504	9099.028320
4773.497375	1.116500	0.871224	586.162659
4773.498441	1.532292	0.871224	2219.586426
4773.499347	1.508489	0.871224	3586.277344
4773.500216	1.468674	0.871224	4862.555176
4773.501319	1.423008	0.871224	6432.132812
4773.502295	1.383124	0.871224	7782.061523
4773.503168	0.626667	0.871224	8329.142578
4773.504222	0.096438	0.871224	8430.788086
4773.505256	0.094933	0.871224	8528.948242
4773.506149	0.094977	0.871224	8613.762695
4773.507040	0.094958	0.871224	8698.371094
4773.508133	0.094933	0.871224	8802.132812
4773.509089	0.094940	0.871224	8892.895508
4773.509961	0.094948	0.871224	8975.689453
4773.510883	0.094995	0.871224	9063.275391
4773.511929	0.095065	0.871224	9162.712891
4773.512805	0.094926	0.871224	9245.867187
4774.488003	1.032594	0.943899	442.982819
4774.488873	1.521888	0.943899	1767.025635
4774.489850	1.517878	0.943899	3249.992676
4774.490808	1.476731	0.943899	4664.701172
4774.491697	1.437543	0.943899	5942.676758
4774.492578	1.400387	0.943899	7176.417480
4774.493523	1.082194	0.943899	8199.090820
4774.494471	0.137633	0.943899	8329.567383
4774.495340	0.094940	0.943899	8412.070312
4774.496252	0.095002	0.943899	8498.712891
4774.497192	0.095002	0.943899	8588.015625
4774.498109	0.094969	0.943899	8675.102539
4774.498984	0.094977	0.943899	8758.207031
4774.499952	0.095010	0.943899	8850.176758
4774.500899	0.095024	0.943899	8940.165039
4774.501789	0.095061	0.943899	9024.769531
4774.502661	0.095002	0.943899	9107.611328
4775.526406	1.112640	0.926477	546.306396
4775.527320	1.529066	0.926477	1943.872803
4775.528208	1.516721	0.926477	3290.721191
4775.529134	1.475977	0.926477	4657.475586
4775.530100	1.434533	0.926477	6043.233887
4775.531032	1.396047	0.926477	7344.350098
4775.531909	1.057511	0.926477	8271.787109
4775.532865	0.121545	0.926477	8387.984375
4775.533800	0.094860	0.926477	8476.677734
4775.534729	0.094988	0.926477	8564.921875
4775.535588	0.094918	0.926477	8646.457031
4775.536552	0.094882	0.926477	8737.922852
4775.537487	0.094849	0.926477	8826.606445
4775.538364	0.094962	0.926477	8909.888672
4775.539278	0.094955	0.926477	8996.677734
4775.540234	0.094882	0.926477	9087.384766
4775.541125	0.094966	0.926477	9171.999023
4776.515059	1.088760	1.016369	518.249634
4776.515949	1.526627	1.016369	1876.947876
4776.516813	1.518501	1.016369	3188.932617
4776.517878	1.473051	1.016369	4757.731445
4776.518818	1.432515	1.016369	6104.295410
4776.519703	1.395619	1.016369	7339.417969
4776.520654	0.933362	1.016369	8227.044922
4776.521698	0.104073	1.016369	8335.697266
4776.522588	0.094896	1.016369	8420.155273
4776.523450	0.094999	1.016369	8502.043945
4776.524516	0.095046	1.016369	8603.363281
4776.525455	0.094980	1.016369	8692.549805
4776.526329	0.094995	1.016369	8775.575195
4776.527262	0.094940	1.016369	8864.154297
4776.528310	0.094991	1.016369	8963.705078
4776.529182	0.094980	1.016369	9046.528320
4776.530056	0.094973	1.016369	9129.535156
4777.553371	1.055424	0.980763	470.718933
4777.554238	1.524423	0.980763	1792.393311
4777.555157	1.519091	0.980763	3188.437500
4777.556122	1.477529	0.980763	4614.253418
4777.557049	1.437261	0.980763	5946.594238
4777.557930	1.400383	0.980763	7180.332031
4777.558861	1.094301	0.980763	8199.125977
4777.559810	0.132312	0.980763	8324.690430
4777.560730	0.094856	0.980763	8411.958008
4777.561592	0.094907	0.980763	8493.767578
4777.562560	0.094918	0.980763	8585.648437
4777.563506	0.094922	0.980763	8675.444336
4777.564395	0.094915	0.980763	8759.823242
4777.565275	0.094907	0.980763	8843.341797
4777.566217	0.094918	0.980763	8932.754883
4777.567166	0.094948	0.980763	9022.860352
4777.568057	0.094980	0.980763	9107.488281
4778.543105	1.081450	1.086655	526.666260
4778.543987	1.526825	1.086655	1873.325928
4778.544860	1.517966	1.086655	3198.510742
4778.545824	1.476771	1.086655	4622.118164
4778.546772	1.435891	1.086655	5983.342773
4778.547675	1.397802	1.086655	7245.557617
4778.548550	1.088295	1.086655	8197.815430
4778.549514	0.133374	1.086655	8326.387695
4778.550462	0.094863	1.086655	8416.318359
4778.551355	0.094940	1.086655	8501.099609
4778.552284	0.094882	1.086655	8589.244141
4778.553236	0.095028	1.086655	8679.710937
4778.554153	0.094940	1.086655	8766.771484
4778.555014	0.094944	1.086655	8848.518555
4778.555986	0.094918	1.086655	8940.779297
4778.556940	0.094926	1.086655	9031.337891
4778.557863	0.094955	1.086655	9118.981445
4779.580936	1.094890	1.018367	547.445129
4779.581868	1.530231	1.018367	1973.620117
4779.582736	1.516055	1.018367	3289.555664
4779.583796	1.470300	1.018367	4848.074219
4779.584808	1.427054	1.018367	6292.253418
4779.585706	1.389869	1.018367	7540.355957
4779.586667	0.757694	1.018367	8268.500000
4779.587714	0.098112	1.018367	8371.222656
4779.588642	0.095002	1.018367	8459.384766
4779.589507	0.095017	1.018367	8541.574219
4779.590572	0.095021	1.018367	8642.771484
4779.591572	0.094951	1.018367	8737.722656
4779.592451	0.094929	1.018367	8821.165039
4779.593435	0.094958	1.018367	8914.604492
4779.594477	0.095017	1.018367	9013.612305
4779.595376	0.094944	1.018367	9098.966797
4779.596232	0.094915	1.018367	9180.213867
4780.570080	1.076726	1.131228	486.680176
4780.571008	1.526697	1.131228	1903.454834
4780.571872	1.517292	1.131228	3214.395508
4780.572827	1.475933	1.131228	4623.911133
4780.573782	1.435426	1.131228	5994.743164
4780.574679	1.398047	1.131228	7248.791016
4780.575594	1.072083	1.131228	8229.746094
4780.576556	0.129320	1.131228	8354.152344
4780.577481	0.094896	1.131228	8441.931641
4780.578355	0.094977	1.131228	8524.941406
4780.579336	0.094977	1.131228	8618.113281
4780.580292	0.094962	1.131228	8708.897461
4780.581217	0.094995	1.131228	8796.767578
4780.582078	0.094918	1.131228	8878.492187
4780.583040	0.094944	1.131228	8969.828125
4780.583963	0.094955	1.131228	9057.471680
4780.584855	0.094937	1.131228	9142.155273
4781.606848	1.031682	1.072000	440.528259
4781.607811	1.523503	1.072000	1907.662109
4781.608711	1.516849	1.072000	3272.826660
4781.609620	1.477482	1.072000	4615.857422
4781.610498	1.439136	1.072000	5879.418457
4781.611465	1.398241	1.072000	7231.517578
4781.612416	1.040596	1.072000	8221.124023
4781.613355	0.127159	1.072000	8340.526367
4781.614216	0.094823	1.072000	8422.168945
4781.615186	0.094918	1.072000	8514.239258
4781.616140	0.094977	1.072000	8604.846680
4781.617012	0.094926	1.072000	8687.622070
4781.617920	0.095006	1.072000	8773.887695
4781.618854	0.094962	1.072000	8862.582031
4781.619786	0.094915	1.072000	8951.041992
4781.620676	0.094973	1.072000	9035.568359
4781.621581	0.094951	1.072000	9121.499023
4782.600153	1.063846	1.152635	474.475525
4782.601028	1.523456	1.152635	1807.499512
4782.601967	1.517172	1.152635	3232.123535
4782.602930	1.475929	1.152635	4653.443359
4782.603836	1.436448	1.152635	5954.865234
4782.604721	1.399050	1.152635	7193.024902
4782.605681	1.059485	1.152635	8210.130859
4782.606637	0.127170	1.152635	8331.706055
4782.607528	0.094904	1.152635	8416.264648
4782.608442	0.094874	1.152635	8502.979492
4782.609368	0.094991	1.152635	8590.941406
4782.610304	0.094929	1.152635	8679.794922
4782.611193	0.094977	1.152635	8764.229492
4782.612126	0.094915	1.152635	8852.785156
4782.613076	0.094948	1.152635	8942.985352
4782.614001	0.094988	1.152635	9030.848633
4782.614858	0.094944	1.152635	9112.215820
4783.634413	1.082970	1.098184	508.995911
4783.635293	1.526038	1.098184	1851.908936
4783.636264	1.515952	1.098184	3323.898437
4783.637325	1.469553	1.098184	4883.094238
4783.638239	1.429962	1.098184	6190.079590
4783.639102	1.393290	1.098184	7392.488770
4783.640159	0.796604	1.098184	8234.499023
4783.641161	0.099580	1.098184	8334.278320
4783.642035	0.094882	1.098184	8417.205078
4783.643009	0.095032	1.098184	8509.765625
4783.644052	0.094951	1.098184	8608.799805
4783.644945	0.094984	1.098184	8693.621094
4783.645811	0.094955	1.098184	8775.851562
4783.646880	0.095024	1.098184	8877.432617
4783.647872	0.094944	1.098184	8971.617187
4783.648768	0.094966	1.098184	9056.707031
4783.649761	0.094955	1.098184	9150.997070
4784.629182	1.035059	1.150452	444.040161
4784.630052	1.521665	1.150452	1767.888794
4784.631033	1.517098	1.150452	3256.162354
4784.631989	1.475673	1.150452	4666.905273
4784.632915	1.435723	1.150452	5996.384766
4784.633781	1.399135	1.150452	7208.035156
4784.634757	1.055013	1.150452	8237.728516
4784.635673	0.126064	1.150452	8353.203125
4784.636544	0.094878	1.150452	8435.841797
4784.637603	0.094893	1.150452	8536.333008
4784.638508	0.094915	1.150452	8622.230469
4784.639417	0.094973	1.150452	8708.561523
4784.640289	0.094940	1.150452	8791.349609
4784.641254	0.094937	1.150452	8882.962891
4784.642188	0.094948	1.150452	8971.643555
4784.643103	0.094911	1.150452	9058.487305
4784.643967	0.094962	1.150452	9140.534180
4785.661941	1.101636	1.055432	522.175293
4785.662875	1.528440	1.055432	1949.738281
4785.663780	1.515538	1.055432	3321.300293
4785.664659	1.476079	1.055432	4618.773926
4785.665643	1.434697	1.055432	6030.516113
4785.666599	1.395308	1.055432	7364.430176
4785.667501	1.012159	1.055432	8277.397461
4785.668418	0.127874	1.055432	8394.657227
4785.669343	0.094929	1.055432	8482.466797
4785.670271	0.094940	1.055432	8570.571289
4785.671129	0.094973	1.055432	8652.058594
4785.672100	0.094926	1.055432	8744.231445
4785.673050	0.094980	1.055432	8834.462891
4785.673923	0.095028	1.055432	8917.422852
4785.674828	0.095002	1.055432	9003.400391
4785.675761	0.095017	1.055432	9092.051758
4785.676697	0.094955	1.055432	9180.929687
4786.660855	1.054182	1.101221	508.115814
4786.661787	1.527231	1.101221	1931.495483
4786.662680	1.515264	1.101221	3284.625977
4786.663573	1.476943	1.101221	4603.536133
4786.664496	1.436499	1.101221	5929.424805
4786.665454	1.396967	1.101221	7267.718750
4786.666378	1.053776	1.101221	8241.407227
4786.667238	0.137018	1.101221	8359.242187
4786.668207	0.094856	1.101221	8451.157227
4786.669151	0.094893	1.101221	8540.735352
4786.670041	0.094991	1.101221	8625.277344
4786.670936	0.094922	1.101221	8710.232422
4786.671870	0.094907	1.101221	8798.875977
4786.672812	0.094984	1.101221	8888.350586
4786.673681	0.094980	1.101221	8970.888672
4786.674589	0.094955	1.101221	9057.107422
4786.675541	0.094900	1.101221	9147.452148
4787.685830	1.037036	0.992211	451.110748
4787.686694	1.522756	0.992211	1766.772217
4787.687692	1.516791	0.992211	3280.529297
4787.688632	1.475607	0.992211	4667.599609
4787.689525	1.437169	0.992211	5950.991699
4787.690417	1.399863	0.992211	7199.669922
4787.691365	1.056072	0.992211	8200.826172
4787.692318	0.126610	0.992211	8321.485352
4787.693204	0.094907	0.992211	8405.573242
4787.694118	0.094926	0.992211	8492.334961
4787.695073	0.094988	0.992211	8583.047852
4787.695995	0.094973	0.992211	8670.613281
4787.696858	0.094988	0.992211	8752.587891
4787.697796	0.094933	0.992211	8841.634766
4787.698722	0.094955	0.992211	8929.562500
4787.699615	0.094995	0.992211	9014.393555
4787.700694	0.094988	0.992211	9116.885742
4788.693018	1.113435	1.043194	564.511536
4788.694017	1.531882	1.043194	2094.862061
4788.694899	1.512777	1.043194	3429.131348
4788.695890	1.469703	1.043194	4885.607422
4788.696944	1.424601	1.043194	6387.136719
4788.697840	1.386848	1.043194	7629.752441
4788.698707	0.754896	1.043194	8284.247070
4788.699803	0.098027	1.043194	8391.684570
4788.700759	0.094882	1.043194	8482.391602
4788.701625	0.094962	1.043194	8564.628906
4788.702611	0.094937	1.043194	8658.236328
4788.703666	0.094874	1.043194	8758.329102
4788.704557	0.094969	1.043194	8842.947266
4788.705423	0.094867	1.043194	8925.101562
4788.706536	0.095017	1.043194	9030.855469
4788.707497	0.094885	1.043194	9122.040039
4788.708365	0.094969	1.043194	9204.473633
4789.706324	1.170685	0.959658	675.485107
4789.707321	1.533274	0.959658	2204.159180
4789.708219	1.509448	0.959658	3559.643555
4789.709088	1.469418	0.959658	4836.567383
4789.710200	1.424257	0.959658	6420.340820
4789.711107	1.386218	0.959658	7677.640625
4789.711987	0.739534	0.959658	8328.430664
4789.712846	0.102733	0.959658	8416.678711
4789.713908	0.094922	0.959658	8517.485352
4789.714794	0.094926	0.959658	8601.589844
4789.715663	0.094933	0.959658	8684.086914
4789.716662	0.094955	0.959658	8778.947266
4789.717581	0.094958	0.959658	8866.213867
4789.718491	0.094966	0.959658	8952.632812
4789.719365	0.094973	0.959658	9035.639648
4789.720393	0.094900	0.959658	9133.196289
4789.721279	0.094980	0.959658	9217.348633
4790.727122	1.057811	0.931448	470.726074
4790.728000	1.524423	0.931448	1809.169189
4790.728862	1.519882	0.931448	3119.307129
4790.729943	1.474717	0.931448	4713.476074
4790.730864	1.434639	0.931448	6034.778320
4790.731744	1.398241	0.931448	7265.230469
4790.732730	0.969207	0.931448	8220.868164
4790.733735	0.109047	0.931448	8330.459961
4790.734615	0.094874	0.931448	8413.949219
4790.735472	0.094999	0.931448	8495.363281
4790.736526	0.095006	0.931448	8595.500000
4790.737456	0.094966	0.931448	8683.818359
4790.738327	0.094937	0.931448	8766.507812
4790.739272	0.094940	0.931448	8856.226562
4790.740303	0.094874	0.931448	8954.041992
4790.741193	0.094944	0.931448	9038.541992
4790.742050	0.094988	0.931448	9119.946289
4791.720374	1.031019	1.081338	433.028076
4791.721326	1.525455	1.081338	1885.261475
4791.722258	1.515923	1.081338	3298.101562
4791.723152	1.477284	1.081338	4618.793457
4791.724069	1.438114	1.081338	5937.543945
4791.725019	1.398585	1.081338	7266.199707
4791.725940	1.049982	1.081338	8233.232422
4791.726845	0.131865	1.081338	8352.570312
4791.727774	0.094830	1.081338	8440.667969
4791.728741	0.094904	1.081338	8532.439453
4791.729664	0.094926	1.081338	8620.055664
4791.730526	0.094907	1.081338	8701.865234
4791.731501	0.094922	1.081338	8794.414062
4791.732432	0.094900	1.081338	8882.765625
4791.733328	0.094907	1.081338	8967.802734
4791.734223	0.094893	1.081338	9052.731445
4791.735160	0.094830	1.081338	9141.587891
4792.764400	1.107063	0.822107	526.961975
4792.765341	1.529857	0.822107	1966.557617
4792.766271	1.514875	0.822107	3375.391602
4792.767141	1.475783	0.822107	4659.322266
4792.768115	1.434650	0.822107	6056.670898
4792.769070	1.395095	0.822107	7388.986816
4792.769971	1.000803	0.822107	8290.710937
4792.770890	0.125288	0.822107	8405.850586
4792.771845	0.094863	0.822107	8496.445312
4792.772762	0.094951	0.822107	8583.515625
4792.773621	0.094951	0.822107	8665.079102
4792.774539	0.094896	0.822107	8752.193359
4792.775496	0.094907	0.822107	8843.019531
4792.776414	0.095006	0.822107	8930.235352
4792.777287	0.094918	0.822107	9013.098633
4792.778256	0.094962	0.822107	9105.117187
4792.779204	0.094926	0.822107	9195.106445
4793.740741	1.030964	1.142375	445.376556
4793.741611	1.522225	1.142375	1769.712646
4793.742497	1.519113	1.142375	3115.646484
4793.743538	1.475783	1.142375	4651.936035
4793.744429	1.437151	1.142375	5932.437500
4793.745297	1.400852	1.142375	7148.376953
4793.746318	1.022922	1.142375	8192.781250
4793.747224	0.127408	1.142375	8308.212891
4793.748140	0.094893	1.142375	8395.134766
4793.749018	0.095002	1.142375	8478.546875
4793.750053	0.094907	1.142375	8576.775391
4793.750940	0.094948	1.142375	8660.994141
4793.751811	0.094937	1.142375	8743.683594
4793.752780	0.095006	1.142375	8835.744141
4793.753735	0.094882	1.142375	8926.356445
4793.754654	0.094926	1.142375	9013.592773
4793.755517	0.094988	1.142375	9095.567383
4794.797000	1.036941	0.789043	452.106232
4794.797875	1.523833	0.789043	1785.459961
4794.798742	1.520984	0.789043	3104.152832
4794.799789	1.477222	0.789043	4650.803711
4794.800679	1.438012	0.789043	5930.633789
4794.801546	1.401295	0.789043	7145.556641
4794.802462	1.080410	0.789043	8135.212402
4794.803477	0.125662	0.789043	8262.758789
4794.804395	0.094808	0.789043	8349.792969
4794.805274	0.094929	0.789043	8433.235352
4794.806270	0.094918	0.789043	8527.773437
4794.807191	0.094915	0.789043	8615.189453
4794.808113	0.094871	0.789043	8702.660156
4794.808973	0.094900	0.789043	8784.274414
4794.810010	0.094929	0.789043	8882.715820
4794.810887	0.094907	0.789043	8965.949219
4794.811752	0.094918	0.789043	9048.053711
4795.765700	1.031510	1.150194	446.643829
4795.766577	1.522690	1.150194	1782.043335
4795.767497	1.519460	1.150194	3179.946777
4795.768438	1.478602	1.150194	4571.311523
4795.769367	1.438092	1.150194	5907.298828
4795.770242	1.401453	1.150194	7133.569824
4795.771157	1.125707	1.150194	8163.591797
4795.772118	0.148920	1.150194	8306.703125
4795.773044	0.094889	1.150194	8394.570312
4795.773913	0.094940	1.150194	8477.073242
4795.774878	0.094933	1.150194	8568.683594
4795.775801	0.094929	1.150194	8656.303711
4795.776718	0.094911	1.150194	8743.336914
4795.777578	0.094944	1.150194	8824.988281
4795.778678	0.094995	1.150194	8929.482422
4795.779699	0.095010	1.150194	9026.487305
4795.780580	0.094896	1.150194	9110.090820
4796.826168	1.144926	0.790279	622.839539
4796.827080	1.531732	0.790279	2019.779297
4796.827954	1.515571	0.790279	3344.388672
4796.828832	1.475182	0.790279	4639.598633
4796.829879	1.431980	0.790279	6138.881836
4796.830765	1.395264	0.790279	7375.085449
4796.831646	1.031587	0.790279	8283.913086
4796.832648	0.123977	0.790279	8408.137695
4796.833564	0.094794	0.790279	8494.968750
4796.834464	0.094922	0.790279	8580.398437
4796.835341	0.094922	0.790279	8663.644531
4796.836362	0.094933	0.790279	8760.571289
4796.837260	0.094896	0.790279	8845.788086
4796.838133	0.094882	0.790279	8928.620117
4796.839085	0.094973	0.790279	9019.034180
4796.840057	0.094904	0.790279	9111.280273
4796.840978	0.095010	0.790279	9198.784180
4797.795844	1.093184	1.106881	542.218994
4797.796763	1.528986	1.106881	1947.356812
4797.797630	1.515820	1.106881	3261.573242
4797.798718	1.469396	1.106881	4860.275879
4797.799724	1.426432	1.106881	6295.266602
4797.800624	1.389082	1.106881	7545.440430
4797.801607	0.720432	1.106881	8253.625000
4797.802657	0.097423	1.106881	8355.918945
4797.803556	0.094926	1.106881	8441.256836
4797.804414	0.094830	1.106881	8522.621094
4797.805497	0.094944	1.106881	8625.445312
4797.806490	0.094915	1.106881	8719.695312
4797.807371	0.094838	1.106881	8803.247070
4797.808359	0.095028	1.106881	8897.134766
4797.809400	0.094977	1.106881	8996.005859
4797.810285	0.094874	1.106881	9079.969727
4797.811145	0.094893	1.106881	9161.577148
