time (s)	coil I (A)	last det (V)	int current (uC)
6272.612832	1.057064	0.680991	462.994110
6272.613700	1.524734	0.680991	1786.463135
6272.614749	1.515765	0.680991	3376.500977
6272.615724	1.473131	0.680991	4812.803711
6272.616661	1.433225	0.680991	6155.735840
6272.617536	0.895525	0.680991	6939.320312
6272.618609	0.101572	0.680991	7048.307129
6272.619490	0.094812	0.680991	7131.836426
6272.620372	0.094926	0.680991	7215.560547
6272.621232	0.094977	0.680991	7297.240723
6272.622288	0.094885	0.680991	7397.439453
6272.623186	0.094904	0.680991	7482.663086
6272.624064	0.094918	0.680991	7566.001465
6272.625058	0.094951	0.680991	7660.382812
6272.625981	0.094882	0.680991	7747.958496
6272.626902	0.094911	0.680991	7835.371582
6273.615354	1.090426	0.676205	511.409790
6273.616247	1.528008	0.676205	1875.920654
6273.617130	1.519896	0.676205	3217.989014
6273.618099	1.478412	0.676205	4650.570312
6273.619075	1.435657	0.676205	6051.771484
6273.620009	0.925840	0.676205	6916.505859
6273.620868	0.114965	0.676205	7015.260254
6273.621900	0.094885	0.676205	7113.181641
6273.622788	0.094834	0.676205	7197.394043
6273.623665	0.094911	0.676205	7280.630859
6273.624576	0.094907	0.676205	7367.091309
6273.625587	0.094904	0.676205	7463.038574
6273.626480	0.094929	0.676205	7547.810547
6273.627362	0.094951	0.676205	7631.557617
6273.628350	0.095032	0.676205	7725.449219
6273.629269	0.094882	0.676205	7812.645508
6274.614200	1.020846	0.681841	428.755280
6274.615165	1.524192	0.681841	1899.600342
6274.616068	1.518402	0.681841	3270.717285
6274.616980	1.479023	0.681841	4619.586914
6274.617863	1.440608	0.681841	5891.643555
6274.618820	1.020450	0.681841	6868.214844
6274.619766	0.119110	0.681841	6980.893066
6274.620691	0.094849	0.681841	7068.627930
6274.621554	0.094849	0.681841	7150.482422
6274.622523	0.094944	0.681841	7242.482910
6274.623456	0.094933	0.681841	7331.055176
6274.624313	0.094940	0.681841	7412.418945
6274.625301	0.094937	0.681841	7506.216309
6274.626214	0.094918	0.681841	7592.876465
6274.627127	0.094878	0.681841	7679.500000
6274.628004	0.094900	0.681841	7762.727051
6275.668929	1.046367	0.608924	447.845184
6275.669900	1.528616	0.608924	1932.131104
6275.670831	1.516879	0.608924	3344.345215
6275.671712	1.478591	0.608924	4646.984375
6275.672623	1.438619	0.608924	5957.566406
6275.673588	0.961022	0.608924	6884.952148
6275.674509	0.113851	0.608924	6989.809082
6275.675383	0.094874	0.608924	7072.729004
6275.676333	0.094922	0.608924	7162.904785
6275.677270	0.094948	0.608924	7251.870605
6275.678181	0.094896	0.608924	7338.321289
6275.679040	0.094944	0.608924	7419.877930
6275.680011	0.094915	0.608924	7512.040039
6275.680948	0.094911	0.608924	7600.971680
6275.681840	0.094874	0.608924	7685.599609
6275.682770	0.094871	0.608924	7773.829102
6276.630966	1.021644	0.647230	429.090637
6276.631930	1.528290	0.647230	1902.362061
6276.632831	1.517988	0.647230	3270.069336
6276.633755	1.478529	0.647230	4636.230469
6276.634629	1.439517	0.647230	5894.368164
6276.635634	0.968899	0.647230	6868.111816
6276.636558	0.114247	0.647230	6973.675781
6276.637432	0.094783	0.647230	7056.516113
6276.638355	0.094893	0.647230	7144.102051
6276.639303	0.094852	0.647230	7234.021973
6276.640212	0.094860	0.647230	7320.249512
6276.641082	0.094940	0.647230	7402.847656
6276.642017	0.094856	0.647230	7491.538086
6276.642975	0.094838	0.647230	7582.392578
6276.643898	0.094834	0.647230	7669.924316
6276.644759	0.094849	0.647230	7751.588867
6277.699575	1.103071	0.676568	533.886536
6277.700524	1.530535	0.676568	1986.364014
6277.701447	1.515714	0.676568	3385.368164
6277.702330	1.476178	0.676568	4688.833008
6277.703302	1.435290	0.676568	6083.935547
6277.704265	0.865499	0.676568	6917.411133
6277.705154	0.106296	0.676568	7011.908691
6277.706068	0.094841	0.676568	7098.593750
6277.707000	0.094904	0.676568	7187.043945
6277.707935	0.094915	0.676568	7275.789062
6277.708809	0.094915	0.676568	7358.744141
6277.709737	0.094852	0.676568	7446.767090
6277.710672	0.094827	0.676568	7535.430176
6277.711592	0.094845	0.676568	7622.687500
6277.712463	0.094878	0.676568	7705.326172
6277.713424	0.094841	0.676568	7796.468750
6278.658553	1.056156	0.640039	512.235657
6278.659495	1.529183	0.640039	1952.726318
6278.660409	1.516333	0.640039	3338.654785
6278.661293	1.477683	0.640039	4644.926758
6278.662307	1.434342	0.640039	6099.349609
6278.663249	0.843223	0.640039	6893.665527
6278.664157	0.105084	0.640039	6989.082031
6278.665037	0.094841	0.640039	7072.542480
6278.665995	0.094926	0.640039	7163.480957
6278.666940	0.094889	0.640039	7253.150879
6278.667826	0.094944	0.640039	7337.270996
6278.668737	0.094885	0.640039	7423.711426
6278.669656	0.094896	0.640039	7510.920898
6278.670596	0.094944	0.640039	7600.167969
6278.671481	0.094955	0.640039	7684.203125
6278.672402	0.094893	0.640039	7771.599121
6279.721912	1.039797	0.742637	437.754730
6279.722892	1.528392	0.742637	1935.579224
6279.723837	1.516142	0.742637	3368.333984
6279.724715	1.477617	0.742637	4665.681641
6279.725650	1.437627	0.742637	6009.862793
6279.726590	0.939185	0.742637	6892.696289
6279.727520	0.110819	0.742637	6995.757812
6279.728394	0.094834	0.742637	7078.642578
6279.729347	0.094852	0.742637	7169.036621
6279.730264	0.094907	0.742637	7256.066406
6279.731180	0.094940	0.742637	7343.031738
6279.732041	0.094867	0.742637	7424.712402
6279.733006	0.094830	0.742637	7516.223633
6279.733933	0.094915	0.742637	7604.209473
6279.734797	0.094915	0.742637	7686.215820
6279.735759	0.094911	0.742637	7777.520020
6280.690123	1.040083	0.722394	452.436066
6280.690996	1.523646	0.722394	1782.579224
6280.691970	1.518856	0.722394	3261.945312
6280.692896	1.478295	0.722394	4630.846191
6280.693782	1.439696	0.722394	5906.416992
6280.694658	1.082000	0.722394	6854.248535
6280.695612	0.129829	0.722394	6978.105469
6280.696567	0.094827	0.722394	7068.665039
6280.697450	0.094958	0.722394	7152.513184
6280.698379	0.094940	0.722394	7240.712402
6280.699316	0.094926	0.722394	7329.657715
6280.700226	0.094926	0.722394	7416.040039
6280.701100	0.094900	0.722394	7498.982422
6280.702026	0.094911	0.722394	7586.870117
6280.702964	0.094940	0.722394	7675.923828
6280.703887	0.094988	0.722394	7763.597656
6281.750001	1.076928	0.683581	498.617462
6281.750901	1.527455	0.683581	1873.326782
6281.751768	1.519860	0.683581	3191.044922
6281.752744	1.478405	0.683581	4633.967773
6281.753698	1.437532	0.683581	6005.373047
6281.754581	1.026899	0.683581	6912.125000
6281.755495	0.127738	0.683581	7028.877441
6281.756436	0.094819	0.683581	7118.102539
6281.757367	0.094904	0.683581	7206.457520
6281.758252	0.094955	0.683581	7290.492676
6281.759158	0.094907	0.683581	7376.478516
6281.760104	0.094841	0.683581	7466.198242
6281.761022	0.094922	0.683581	7553.336426
6281.761882	0.094907	0.683581	7634.956543
6281.762853	0.094882	0.683581	7727.086426
6281.763795	0.094896	0.683581	7816.478516
6282.716141	1.061935	0.731176	493.799683
6282.717023	1.526374	0.731176	1840.062012
6282.717893	1.520339	0.731176	3162.757324
6282.718872	1.479386	0.731176	4611.076172
6282.719790	1.438231	0.731176	5931.372070
6282.720728	1.022113	0.731176	6890.114258
6282.721594	0.127170	0.731176	7000.243652
6282.722571	0.094808	0.731176	7092.871582
6282.723506	0.094896	0.731176	7181.599609
6282.724396	0.094926	0.731176	7266.083496
6282.725301	0.094841	0.731176	7351.915039
6282.726229	0.094951	0.731176	7440.029785
6282.727145	0.094933	0.731176	7526.988281
6282.728009	0.094918	0.731176	7608.997559
6282.728970	0.094885	0.731176	7700.182129
6282.729910	0.094885	0.731176	7789.374023
6283.778002	1.043035	0.760450	458.935242
6283.778869	1.524214	0.760450	1780.428711
6283.779894	1.516421	0.760450	3334.760254
6283.780926	1.471626	0.760450	4853.478516
6283.781817	1.433024	0.760450	6130.302734
6283.782689	0.916172	0.760450	6929.204590
6283.783724	0.104066	0.760450	7036.913086
6283.784665	0.094845	0.760450	7126.162109
6283.785530	0.094948	0.760450	7208.291504
6283.786432	0.094948	0.760450	7293.934082
6283.787507	0.094882	0.760450	7395.931641
6283.788402	0.094933	0.760450	7480.896484
6283.789267	0.094937	0.760450	7563.016602
6283.790285	0.095035	0.760450	7659.762695
6283.791260	0.094907	0.760450	7752.297363
6283.792135	0.094911	0.760450	7835.344238
6284.743149	1.072852	0.772136	497.803101
6284.744044	1.527114	0.772136	1864.570435
6284.744915	1.519263	0.772136	3187.848145
6284.745897	1.477855	0.772136	4639.102051
6284.746854	1.436957	0.772136	6014.269531
6284.747754	0.996343	0.772136	6910.978027
6284.748655	0.123541	0.772136	7022.288574
6284.749592	0.094801	0.772136	7111.117187
6284.750536	0.094904	0.772136	7200.706055
6284.751412	0.094948	0.772136	7283.879883
6284.752321	0.094856	0.772136	7370.104004
6284.753273	0.094882	0.772136	7460.431152
6284.754199	0.094893	0.772136	7548.301758
6284.755073	0.094841	0.772136	7631.192871
6284.756029	0.094860	0.772136	7721.878906
6284.756961	0.094896	0.772136	7810.322266
6285.806535	1.042808	0.764667	450.492920
6285.807415	1.524683	0.764667	1792.213623
6285.808284	1.521259	0.764667	3114.187500
6285.809264	1.479924	0.764667	4564.513184
6285.810220	1.438645	0.764667	5939.857910
6285.811125	1.062356	0.764667	6901.290039
6285.812035	0.133821	0.764667	7023.066895
6285.812999	0.094779	0.764667	7114.434082
6285.813922	0.094841	0.764667	7201.972656
6285.814782	0.094904	0.764667	7283.589844
6285.815763	0.094856	0.764667	7376.643555
6285.816684	0.094874	0.764667	7464.022949
6285.817608	0.094896	0.764667	7551.707031
6285.818485	0.094966	0.764667	7634.992187
6285.819574	0.095028	0.764667	7738.477539
6285.820628	0.094893	0.764667	7838.494141
6286.771684	1.070229	0.807279	495.516205
6286.772576	1.526034	0.807279	1856.738403
6286.773498	1.518314	0.807279	3256.624023
6286.774369	1.480023	0.807279	4545.724121
6286.775346	1.438531	0.807279	5951.169434
6286.776285	1.014031	0.807279	6903.344238
6286.777144	0.127189	0.807279	7012.599121
6286.778097	0.094874	0.807279	7103.014160
6286.779026	0.094948	0.807279	7191.220215
6286.779931	0.094929	0.807279	7277.131348
6286.780794	0.094929	0.807279	7359.055176
6286.781773	0.094922	0.807279	7451.983887
6286.782730	0.094915	0.807279	7542.816895
6286.783615	0.094940	0.807279	7626.838867
6286.784531	0.094940	0.807279	7713.804199
6286.785491	0.094944	0.807279	7804.950195
6287.827384	1.028657	0.795117	435.122009
6287.828332	1.526045	0.795117	1881.812744
6287.829270	1.517270	0.795117	3305.012451
6287.830198	1.476665	0.795117	4675.357422
6287.831078	1.438667	0.795117	5941.384277
6287.832014	1.003195	0.795117	6880.374512
6287.832958	0.114840	0.795117	6988.783691
6287.833846	0.094871	0.795117	7073.028809
6287.834908	0.094900	0.795117	7173.812500
6287.835857	0.094911	0.795117	7263.882812
6287.836779	0.094882	0.795117	7351.363770
6287.837641	0.094907	0.795117	7433.173828
6287.838609	0.094889	0.795117	7525.026367
6287.839514	0.094896	0.795117	7610.907227
6287.840415	0.094922	0.795117	7696.431641
6287.841289	0.094962	0.795117	7779.428711
6288.809918	1.025614	0.841596	430.757904
6288.810841	1.522017	0.841596	1835.579346
6288.811795	1.517490	0.841596	3283.265137
6288.812727	1.476746	0.841596	4659.591797
6288.813623	1.438246	0.841596	5948.260254
6288.814554	0.995548	0.841596	6875.115234
6288.815506	0.117092	0.841596	6986.586914
6288.816423	0.094845	0.841596	7073.559570
6288.817284	0.094882	0.841596	7155.252441
6288.818251	0.094874	0.841596	7246.996094
6288.819157	0.094907	0.841596	7332.981934
6288.820069	0.094980	0.841596	7419.604004
6288.820945	0.094937	0.841596	7502.768555
6288.821915	0.094980	0.841596	7594.899414
6288.822836	0.094896	0.841596	7682.298828
6288.823699	0.094834	0.841596	7764.140625
6289.838533	1.039475	0.783367	449.053223
6289.839404	1.523225	0.783367	1775.782227
6289.840266	1.522068	0.783367	3087.804687
6289.841243	1.481309	0.783367	4535.042969
6289.842190	1.440022	0.783367	5898.743652
6289.843079	1.111556	0.783367	6886.917480
6289.843995	0.144972	0.783367	7019.711914
6289.844946	0.094860	0.783367	7109.923340
6289.845872	0.094918	0.783367	7197.817383
6289.846748	0.094896	0.783367	7280.946289
6289.847707	0.094929	0.783367	7371.983398
6289.848667	0.094893	0.783367	7463.080078
6289.849556	0.094933	0.783367	7547.475586
6289.850644	0.094900	0.783367	7650.726562
6289.851591	0.094882	0.783367	7740.579590
6289.852519	0.094926	0.783367	7828.670410
6290.860996	1.049392	0.761461	457.534943
6290.861870	1.524272	0.761461	1789.749023
6290.862732	1.520475	0.761461	3100.398437
6290.863801	1.476277	0.761461	4678.538574
6290.864697	1.437682	0.761461	5966.701660
6290.865579	1.069764	0.761461	6910.233887
6290.866583	0.127368	0.761461	7038.111328
6290.867503	0.094816	0.761461	7125.341797
6290.868426	0.094951	0.761461	7212.981934
6290.869287	0.094969	0.761461	7294.750488
6290.870329	0.094834	0.761461	7393.567383
6290.871216	0.094819	0.761461	7477.672363
6290.872118	0.094867	0.761461	7563.242187
6290.872998	0.094944	0.761461	7646.792969
6290.873960	0.094871	0.761461	7738.058594
6290.874873	0.094951	0.761461	7824.749023
6291.848633	1.020948	0.821994	428.798340
6291.849584	1.521888	0.821994	1876.114136
6291.850554	1.515663	0.821994	3346.307129
6291.851468	1.475944	0.821994	4695.319336
6291.852350	1.437667	0.821994	5963.341797
6291.853389	0.863024	0.821994	6860.023437
6291.854285	0.107117	0.821994	6956.000000
6291.855158	0.094786	0.821994	7038.748535
6291.856056	0.094955	0.821994	7124.018066
6291.857080	0.094889	0.821994	7221.184082
6291.857968	0.094893	0.821994	7305.448730
6291.858831	0.094926	0.821994	7387.369629
6291.859804	0.094878	0.821994	7479.686035
6291.860725	0.094834	0.821994	7567.028320
6291.861651	0.094915	0.821994	7654.918945
6291.862514	0.094845	0.821994	7736.770020
6292.894153	1.034388	0.850507	450.993347
6292.895019	1.523730	0.850507	1770.543945
6292.895914	1.519980	0.850507	3130.926270
6292.896945	1.476493	0.850507	4653.190430
6292.897839	1.437700	0.850507	5938.494629
6292.898727	1.080333	0.850507	6897.830566
6292.899721	0.127050	0.850507	7024.117676
6292.900641	0.094812	0.850507	7111.344727
6292.901557	0.094918	0.850507	7198.290039
6292.902420	0.094852	0.850507	7280.147461
6292.903447	0.094812	0.850507	7377.519531
6292.904322	0.094856	0.850507	7460.518555
6292.905191	0.094874	0.850507	7542.964355
6292.906153	0.094977	0.850507	7634.332031
6292.907102	0.094889	0.850507	7724.381836
6292.908018	0.094867	0.850507	7811.279785
6293.886476	1.060455	0.906859	534.469482
6293.887380	1.528868	0.906859	1916.566406
6293.888308	1.516047	0.906859	3323.458496
6293.889176	1.477892	0.906859	4606.268555
6293.890158	1.435283	0.906859	6015.716797
6293.891088	0.952126	0.906859	6901.194336
6293.892007	0.114104	0.906859	7006.056152
6293.892866	0.094746	0.906859	7087.442871
6293.893809	0.094860	0.906859	7176.895508
6293.894753	0.094944	0.906859	7266.522461
6293.895648	0.094915	0.906859	7351.471191
6293.896562	0.094915	0.906859	7438.223145
6293.897479	0.094893	0.906859	7525.239746
6293.898431	0.094948	0.906859	7615.629883
6293.899316	0.094948	0.906859	7699.658203
6293.900245	0.094929	0.906859	7787.847656
6294.895562	1.033037	0.920434	450.404205
6294.896434	1.523390	0.920434	1778.800171
6294.897349	1.520870	0.920434	3170.396484
6294.898291	1.478621	0.920434	4563.256836
6294.899246	1.438118	0.920434	5936.659180
6294.900135	1.078953	0.920434	6895.848145
6294.901074	0.133781	0.920434	7021.468262
6294.902024	0.094816	0.920434	7111.542969
6294.902895	0.094896	0.920434	7194.197754
6294.903811	0.094878	0.920434	7281.105957
6294.904762	0.094845	0.920434	7371.303711
6294.905691	0.094819	0.920434	7459.390625
6294.906567	0.094926	0.920434	7542.545410
6294.907518	0.094841	0.920434	7632.739258
6294.908478	0.094801	0.920434	7723.748047
6294.909405	0.094915	0.920434	7811.733887
6295.941074	1.070328	0.774690	472.014801
6295.942043	1.529264	0.774690	1953.871460
6295.942939	1.517033	0.774690	3313.132568
6295.943861	1.476405	0.774690	4674.377930
6295.944825	1.435305	0.774690	6058.012207
6295.945772	0.900007	0.774690	6910.319336
6295.946666	0.109028	0.774690	7007.790527
6295.947580	0.094801	0.774690	7094.438477
6295.948538	0.094816	0.774690	7185.271973
6295.949426	0.094871	0.774690	7269.517090
6295.950290	0.094808	0.774690	7351.431641
6295.951226	0.094944	0.774690	7440.299316
6295.952179	0.094900	0.774690	7530.738770
6295.953069	0.094874	0.774690	7615.176758
6295.953979	0.094874	0.774690	7701.512207
6295.954938	0.094937	0.774690	7792.556152
6296.908252	1.068435	0.930384	479.727356
6296.909128	1.524514	0.930384	1815.201904
6296.910067	1.518329	0.930384	3240.912598
6296.911034	1.476866	0.930384	4669.042480
6296.911964	1.436503	0.930384	6004.990234
6296.912834	1.029997	0.930384	6901.087891
6296.913792	0.119722	0.930384	7015.781250
6296.914744	0.094841	0.930384	7106.070312
6296.915632	0.094860	0.930384	7190.305664
6296.916492	0.094867	0.930384	7271.891113
6296.917457	0.094915	0.930384	7363.483887
6296.918392	0.094878	0.930384	7452.194824
6296.919280	0.094929	0.930384	7536.492187
6296.920194	0.094940	0.930384	7623.267578
6296.921159	0.094860	0.930384	7714.807129
6296.922049	0.094904	0.930384	7799.271484
6297.961932	1.041101	0.827219	453.920074
6297.962808	1.524276	0.827219	1789.185913
6297.963785	1.518127	0.827219	3272.396484
6297.964708	1.476584	0.827219	4635.284180
6297.965636	1.437074	0.827219	5968.888672
6297.966508	1.040002	0.827219	6875.770996
6297.967481	0.122208	0.827219	6994.679687
6297.968421	0.094860	0.827219	7083.847656
6297.969305	0.094863	0.827219	7167.707031
6297.970191	0.094940	0.827219	7251.824219
6297.971133	0.094830	0.827219	7341.154297
6297.972058	0.094874	0.827219	7428.913086
6297.972921	0.094896	0.827219	7510.808594
6297.973876	0.094911	0.827219	7601.448730
6297.974821	0.094907	0.827219	7691.136230
6297.975715	0.094904	0.827219	7775.979980
6298.962464	1.114149	0.861714	571.558533
6298.963374	1.530560	0.861714	1964.368408
6298.964247	1.517278	0.861714	3288.951904
6298.965248	1.474383	0.861714	4764.809570
6298.966262	1.430306	0.861714	6215.140137
6298.967150	0.818639	0.861714	6942.091309
6298.968007	0.105967	0.861714	7032.904785
6298.969071	0.094958	0.861714	7133.940430
6298.969993	0.094904	0.861714	7221.441406
6298.970870	0.094973	0.861714	7304.732910
6298.971829	0.095017	0.861714	7395.854492
6298.972844	0.094988	0.861714	7492.267090
6298.973731	0.094944	0.861714	7576.482422
6298.974594	0.094889	0.861714	7658.371582
6298.975671	0.094988	0.861714	7760.673340
6298.976607	0.094911	0.861714	7849.509766
6299.961884	1.112021	0.950768	563.794861
6299.962880	1.532190	0.950768	2089.855957
6299.963775	1.512686	0.950768	3443.709473
6299.964759	1.469550	0.950768	4889.746094
6299.965814	1.424579	0.950768	6392.676758
6299.966724	0.591160	0.950768	6930.631836
6299.967586	0.098361	0.950768	7015.418457
6299.968706	0.094966	0.950768	7121.780273
6299.969671	0.094867	0.950768	7213.326660
6299.970539	0.094904	0.950768	7295.703125
6299.971619	0.094922	0.950768	7398.218750
6299.972643	0.094849	0.950768	7495.343750
6299.973536	0.094867	0.950768	7580.060059
6299.974467	0.094995	0.950768	7668.500488
6299.975519	0.094871	0.950768	7768.304199
6299.976457	0.094918	0.950768	7857.337402
6301.001747	1.108392	0.930352	565.280090
6301.002743	1.532552	0.930352	2091.702393
6301.003637	1.513088	0.930352	3444.403320
6301.004503	1.473501	0.930352	4720.455078
6301.005611	1.427677	0.930352	6302.321289
6301.006543	0.657550	0.930352	6915.157715
6301.007424	0.099434	0.930352	7002.758789
6301.008423	0.094973	0.930352	7097.636719
6301.009418	0.094915	0.930352	7192.076660
6301.010297	0.094933	0.930352	7275.522461
6301.011156	0.094962	0.930352	7357.094727
6301.012232	0.094969	0.930352	7459.281738
6301.013137	0.094889	0.930352	7545.156250
6301.014004	0.094911	0.930352	7627.443848
6301.014971	0.095046	0.930352	7719.353516
6301.015987	0.094893	0.930352	7815.764160
6301.998009	1.024629	1.009533	431.368744
6301.999059	1.529301	1.009533	2037.134399
6301.999943	1.515040	1.009533	3376.430176
6302.000810	1.476559	1.009533	4656.606934
6302.001720	1.436327	1.009533	5963.664551
6302.002741	0.855674	1.009533	6837.307617
6302.003684	0.104557	1.009533	6935.904785
6302.004545	0.094893	1.009533	7017.607422
6302.005621	0.094926	1.009533	7119.747070
6302.006531	0.094962	1.009533	7206.162598
6302.007405	0.094852	1.009533	7289.063477
6302.008262	0.094918	1.009533	7370.408203
6302.009305	0.094900	1.009533	7469.388672
6302.010188	0.094893	1.009533	7553.178711
6302.011059	0.094977	1.009533	7635.903320
6302.012067	0.094926	1.009533	7731.588379
6303.003575	1.021882	0.993278	433.278107
6303.004583	1.526733	0.993278	1972.225342
6303.005638	1.509335	0.993278	3564.573486
6303.006530	1.469901	0.993278	4875.725586
6303.007451	1.430182	0.993278	6192.922852
6303.008520	0.598407	0.993278	6832.620117
6303.009467	0.096522	0.993278	6924.026855
6303.010335	0.094783	0.993278	7006.298340
6303.011372	0.094940	0.993278	7104.751465
6303.012398	0.094827	0.993278	7202.043457
6303.013294	0.094790	0.993278	7286.975098
6303.014242	0.094904	0.993278	7376.943848
6303.015304	0.094889	0.993278	7477.715820
6303.016234	0.094860	0.993278	7565.935059
6303.017094	0.094867	0.993278	7647.520508
6303.018158	0.095017	0.993278	7748.618652
6304.051149	1.047645	0.819340	455.725677
6304.052104	1.524349	0.819340	1911.479370
6304.053012	1.517589	0.819340	3289.450195
6304.053910	1.477236	0.819340	4616.008301
6304.054803	1.439114	0.819340	5901.136719
6304.055756	1.013386	0.819340	6866.893555
6304.056711	0.117616	0.819340	6979.216797
6304.057600	0.094893	0.819340	7063.576172
6304.058518	0.094889	0.819340	7150.684082
6304.059482	0.094867	0.819340	7242.135742
6304.060403	0.094860	0.819340	7329.501465
6304.061278	0.094933	0.819340	7412.567871
6304.062225	0.094966	0.819340	7502.500488
6304.063150	0.094926	0.819340	7590.306641
6304.064070	0.094900	0.819340	7677.614746
6304.064948	0.094940	0.819340	7760.972168
6305.021982	1.071899	1.003281	563.819092
6305.022903	1.529502	1.003281	1972.490356
6305.023815	1.514619	1.003281	3353.822998
6305.024683	1.475087	1.003281	4634.198242
6305.025734	1.431526	1.003281	6138.731934
6305.026625	0.853220	1.003281	6898.951172
6305.027529	0.105652	1.003281	6994.460449
6305.028405	0.094830	1.003281	7077.531738
6305.029380	0.094874	1.003281	7170.034180
6305.030297	0.094966	1.003281	7257.117676
6305.031169	0.094889	1.003281	7339.860840
6305.032182	0.094918	1.003281	7436.013184
6305.033079	0.094893	1.003281	7521.131836
6305.033995	0.094966	1.003281	7608.120605
6305.034858	0.094907	1.003281	7690.025391
6305.035840	0.094882	1.003281	7783.199219
6306.068492	1.096205	0.870133	552.487244
6306.069391	1.529751	0.870133	1927.733398
6306.070254	1.517000	0.870133	3236.904053
6306.071347	1.470996	0.870133	4844.702637
6306.072319	1.428688	0.870133	6233.387207
6306.073208	0.788415	0.870133	6934.288574
6306.074230	0.101715	0.870133	7038.241211
6306.075268	0.094882	0.870133	7136.728516
6306.076150	0.094940	0.870133	7220.465820
6306.077029	0.094948	0.870133	7303.924805
6306.078101	0.094966	0.870133	7405.728027
6306.079058	0.094904	0.870133	7496.550781
6306.079919	0.094966	0.870133	7578.316406
6306.080964	0.095013	0.870133	7677.605469
6306.082005	0.094955	0.870133	7776.453613
6306.082879	0.094907	0.870133	7859.402344
6307.075115	1.121162	0.924326	583.004272
6307.076013	1.530253	0.924326	1957.171143
6307.076884	1.517168	0.924326	3278.624512
6307.077904	1.473300	0.924326	4781.390137
6307.078907	1.429827	0.924326	6215.506348
6307.079799	0.808561	0.924326	6936.742676
6307.080655	0.105450	0.924326	7027.008301
6307.081750	0.094893	0.924326	7130.915527
6307.082647	0.094929	0.924326	7216.066895
6307.083529	0.094893	0.924326	7299.762207
6307.084520	0.094951	0.924326	7393.858887
6307.085511	0.094878	0.924326	7487.882812
6307.086401	0.094999	0.924326	7572.431641
6307.087261	0.094922	0.924326	7654.064453
6307.088358	0.094973	0.924326	7758.250000
6307.089275	0.094889	0.924326	7845.263184
6308.072952	1.087310	1.018299	513.210144
6308.073842	1.526261	1.018299	1871.582520
6308.074707	1.518640	1.018299	3185.206055
6308.075703	1.476812	1.018299	4656.110352
6308.076630	1.436711	1.018299	5987.941895
6308.077508	1.047052	1.018299	6907.253418
6308.078452	0.130540	1.018299	7030.482910
6308.079378	0.094841	1.018299	7118.306152
6308.080315	0.094933	1.018299	7207.258301
6308.081202	0.094926	1.018299	7291.457031
6308.082111	0.094885	1.018299	7377.707520
6308.083064	0.094874	1.018299	7468.122559
6308.083981	0.094907	1.018299	7555.152344
6308.084852	0.094889	1.018299	7637.800781
6308.085806	0.094867	1.018299	7728.303711
6308.086731	0.094834	1.018299	7816.025391
6309.112275	1.036040	0.965443	465.181976
6309.113210	1.528110	0.965443	1893.965210
6309.114150	1.516168	0.965443	3319.163330
6309.115030	1.477522	0.965443	4619.382812
6309.115956	1.437546	0.965443	5950.550781
6309.116912	0.972946	0.965443	6880.686523
6309.117828	0.115701	0.965443	6986.668457
6309.118685	0.094812	0.965443	7067.922363
6309.119631	0.094871	0.965443	7157.669922
6309.120574	0.094856	0.965443	7247.119141
6309.121476	0.094896	0.965443	7332.715332
6309.122375	0.094863	0.965443	7417.997559
6309.123312	0.094860	0.965443	7506.880859
6309.124257	0.094907	0.965443	7596.568359
6309.125143	0.094900	0.965443	7680.649902
6309.126067	0.094849	0.965443	7768.290039
6310.104516	1.029708	1.083767	440.715149
6310.105439	1.522083	1.083767	1845.597412
6310.106382	1.516666	1.083767	3275.813721
6310.107310	1.475988	1.083767	4645.530273
6310.108211	1.437363	1.083767	5940.594727
6310.109134	1.004136	1.083767	6867.412109
6310.110091	0.115444	1.083767	6977.892578
6310.111015	0.094867	1.083767	7065.549805
6310.111877	0.094860	1.083767	7147.318848
6310.112851	0.094926	1.083767	7239.776367
6310.113800	0.094944	1.083767	7329.877930
6310.114695	0.094904	1.083767	7414.816406
6310.115613	0.094896	1.083767	7501.931152
6310.116518	0.094889	1.083767	7587.805664
6310.117465	0.094863	1.083767	7677.641113
6310.118348	0.094929	1.083767	7761.463379
6311.121339	1.023157	0.997432	430.748993
6311.122243	1.521676	0.997432	1806.344238
6311.123191	1.517457	0.997432	3244.893799
6311.124135	1.476885	0.997432	4639.073242
6311.125025	1.438422	0.997432	5919.268555
6311.125952	1.031246	0.997432	6875.233887
6311.126911	0.121315	0.997432	6991.574707
6311.127825	0.094852	0.997432	7078.269531
6311.128687	0.094896	0.997432	7160.070312
6311.129631	0.094958	0.997432	7249.710937
6311.130561	0.094900	0.997432	7337.967773
6311.131486	0.094944	0.997432	7425.791016
6311.132357	0.094915	0.997432	7508.461426
6311.133322	0.094907	0.997432	7600.046875
6311.134273	0.094911	0.997432	7690.307129
6311.135166	0.094966	0.997432	7775.111816
6312.151478	1.021135	0.844730	427.855713
6312.152369	1.521932	0.844730	1783.897461
6312.153323	1.517794	0.844730	3231.873047
6312.154275	1.477039	0.844730	4638.013672
6312.155169	1.438286	0.844730	5923.841309
6312.156091	1.035480	0.844730	6878.553711
6312.157047	0.121091	0.844730	6994.316895
6312.157962	0.094819	0.844730	7081.076660
6312.158829	0.094882	0.844730	7163.338867
6312.159792	0.094834	0.844730	7254.664062
6312.160694	0.094882	0.844730	7340.247070
6312.161614	0.094977	0.844730	7427.625977
6312.162486	0.094962	0.844730	7510.433105
6312.163460	0.094874	0.844730	7602.840820
6312.164408	0.094940	0.844730	7692.844238
6312.165299	0.094944	0.844730	7777.438965
6313.133013	1.074214	1.005803	473.728302
6313.133946	1.527773	1.005803	1899.140991
6313.134830	1.518087	1.005803	3241.129883
6313.135755	1.477712	1.005803	4608.013672
6313.136729	1.436327	1.005803	6006.996094
6313.137657	0.973660	1.005803	6910.552246
6313.138518	0.120872	1.005803	7014.622559
6313.139489	0.094750	1.005803	7106.624512
6313.140385	0.094823	1.005803	7191.585937
6313.141304	0.094812	1.005803	7278.718262
6313.142179	0.094863	1.005803	7361.723633
6313.143142	0.094849	1.005803	7453.062988
6313.144071	0.094918	1.005803	7541.242187
6313.144932	0.094874	1.005803	7622.928711
6313.145902	0.094907	1.005803	7714.988770
6313.146852	0.094929	1.005803	7805.171387
6314.187725	1.036992	0.878455	457.313568
6314.188588	1.523862	0.878455	1772.406860
6314.189543	1.518907	0.878455	3222.963379
6314.190474	1.478331	0.878455	4599.290039
6314.191362	1.439689	0.878455	5877.733398
6314.192252	1.102943	0.878455	6859.352539
6314.193206	0.128262	0.878455	6981.714355
6314.194155	0.094849	0.878455	7071.725586
6314.195045	0.094900	0.878455	7156.186523
6314.195964	0.094882	0.878455	7243.382812
6314.196913	0.094918	0.878455	7333.459961
6314.197839	0.094867	0.878455	7421.306641
6314.198697	0.094922	0.878455	7502.749512
6314.199644	0.094860	0.878455	7592.581543
6314.200600	0.094871	0.878455	7683.277832
6314.201517	0.094867	0.878455	7770.270996
6315.161537	1.029741	1.026778	439.699493
6315.162477	1.525129	1.026778	1873.321167
6315.163426	1.516095	1.026778	3312.095215
6315.164331	1.476376	1.026778	4648.215332
6315.165211	1.437404	1.026778	5913.130371
6315.166188	0.975066	1.026778	6865.769531
6315.167138	0.112961	1.026778	6973.083008
6315.168028	0.094849	1.026778	7057.498047
6315.168943	0.094915	1.026778	7144.344727
6315.169861	0.094958	1.026778	7231.516602
6315.170804	0.094937	1.026778	7321.041992
6315.171686	0.094878	1.026778	7404.724121
6315.172615	0.094841	1.026778	7492.831543
6315.173568	0.094926	1.026778	7583.295410
6315.174479	0.094860	1.026778	7669.712402
6315.175346	0.094849	1.026778	7751.946289
6316.209085	1.036124	0.949954	441.388916
6316.210136	1.529557	0.949954	2048.953125
6316.211151	1.508895	0.949954	3580.481934
6316.212048	1.469224	0.949954	4898.375488
6316.213018	1.428435	0.949954	6283.957520
6316.214075	0.534910	0.949954	6849.356934
6316.214999	0.096061	0.949954	6938.117187
6316.215860	0.094882	0.949954	7019.810059
6316.216931	0.094951	0.949954	7121.502930
6316.217921	0.094874	0.949954	7215.428223
6316.218803	0.094841	0.949954	7299.078125
6316.219791	0.094984	0.949954	7392.922363
6316.220826	0.094969	0.949954	7491.215820
6316.221721	0.094878	0.949954	7576.131348
6316.222579	0.094907	0.949954	7657.561523
6316.223653	0.094915	0.949954	7759.499512
6317.196857	1.142058	1.089713	629.273987
6317.197864	1.532952	1.089713	2172.956299
6317.198764	1.510071	1.089713	3532.020020
6317.199629	1.470648	1.089713	4804.130859
6317.200730	1.425425	1.089713	6373.523437
6317.201634	0.629586	1.089713	6942.669434
6317.202502	0.099049	1.089713	7028.644043
6317.203515	0.094878	1.089713	7124.755371
6317.204504	0.094885	1.089713	7218.596680
6317.205386	0.094889	1.089713	7302.288574
6317.206246	0.094940	1.089713	7383.937012
6317.207330	0.094856	1.089713	7486.760742
6317.208236	0.094838	1.089713	7572.683594
6317.209110	0.094922	1.089713	7655.645508
6317.210092	0.094962	1.089713	7748.898437
6317.211102	0.094823	1.089713	7844.669434
6318.225348	1.041057	0.959509	445.572449
6318.226222	1.523588	0.959509	1777.187988
6318.227085	1.520153	0.959509	3089.079590
6318.228070	1.479078	0.959509	4545.971680
6318.228999	1.439586	0.959509	5883.347168
6318.229880	1.133591	0.959509	6882.041016
6318.230789	0.151036	0.959509	7019.333008
6318.231754	0.094856	0.959509	7110.869141
6318.232656	0.094816	0.959509	7196.393066
6318.233529	0.094841	0.959509	7279.189453
6318.234455	0.094834	0.959509	7367.005859
6318.235376	0.094889	0.959509	7454.398437
6318.236295	0.094882	0.959509	7541.594727
6318.237167	0.094882	0.959509	7624.331543
6318.238134	0.094830	0.959509	7716.032227
6318.239058	0.094834	0.959509	7803.658691
6319.235010	1.034286	0.939533	442.674377
6319.235882	1.522910	0.939533	1770.652100
6319.236742	1.521720	0.939533	3079.331299
6319.237745	1.479723	0.939533	4563.493164
6319.238673	1.439667	0.939533	5899.503906
6319.239557	1.115669	0.939533	6885.755371
6319.240440	0.146971	0.939533	7015.531250
6319.241391	0.094805	0.939533	7105.690430
6319.242315	0.094940	0.939533	7193.415039
6319.243203	0.094885	0.939533	7277.673340
6319.244120	0.094896	0.939533	7364.693359
6319.245072	0.094918	0.939533	7455.055664
6319.245993	0.094819	0.939533	7542.384277
6319.246879	0.094900	0.939533	7626.465820
6319.247836	0.094980	0.939533	7717.362305
6319.248775	0.094969	0.939533	7806.538574
6320.245184	1.026467	0.993053	437.275085
6320.246052	1.522350	0.993053	1758.674805
6320.246941	1.520281	0.993053	3110.204346
6320.247920	1.478610	0.993053	4557.763184
6320.248853	1.438583	0.993053	5899.960937
6320.249737	1.112340	0.993053	6883.269531
6320.250682	0.139343	0.993053	7014.948730
6320.251638	0.094775	0.993053	7105.554199
6320.252559	0.094933	0.993053	7192.987305
6320.253424	0.094962	0.993053	7275.129395
6320.254385	0.094889	0.993053	7366.317871
6320.255292	0.094889	0.993053	7452.382324
6320.256222	0.094900	0.993053	7540.639160
6320.257096	0.094896	0.993053	7623.578613
6320.258063	0.094768	0.993053	7715.219238
6320.259007	0.094904	0.993053	7804.808105
6321.267700	1.100182	0.981484	529.187500
6321.268660	1.529670	0.981484	1997.671021
6321.269596	1.513663	0.981484	3414.459961
6321.270478	1.474892	0.981484	4715.315430
6321.271409	1.435276	0.981484	6051.557129
6321.272371	0.894675	0.981484	6912.234863
6321.273245	0.109182	0.981484	7007.660156
6321.274163	0.094856	0.981484	7094.737793
6321.275088	0.094834	0.981484	7182.458984
6321.276042	0.094896	0.981484	7272.990234
6321.276928	0.094882	0.981484	7357.055176
6321.277836	0.094874	0.981484	7443.201172
6321.278793	0.094871	0.981484	7533.992187
6321.279713	0.094863	0.981484	7621.266602
6321.280578	0.094852	0.981484	7703.313965
6321.281520	0.094779	0.981484	7792.595703
6322.269140	1.052289	1.069583	465.111633
6322.270006	1.523324	1.069583	1784.310059
6322.270966	1.517128	1.069583	3240.752441
6322.271882	1.477474	1.069583	4594.119141
6322.272777	1.438942	1.069583	5881.971680
6322.273744	1.025204	1.069583	6873.343750
6322.274662	0.118975	1.069583	6982.562500
6322.275543	0.094783	1.069583	7066.065918
6322.276424	0.094863	1.069583	7149.640625
6322.277462	0.094827	1.069583	7248.070801
6322.278378	0.094878	1.069583	7334.979004
6322.279254	0.094885	1.069583	7418.098633
6322.280261	0.094904	1.069583	7513.666504
6322.281135	0.094882	1.069583	7596.592773
6322.282048	0.094852	1.069583	7683.192871
6322.282929	0.094819	1.069583	7766.728516
6323.296779	1.096377	0.920998	552.573975
6323.297678	1.529414	0.920998	1927.517212
6323.298543	1.516465	0.920998	3239.259277
6323.299645	1.470161	0.920998	4859.376953
6323.300617	1.428179	0.920998	6247.566406
6323.301492	0.812040	0.920998	6958.101074
6323.302505	0.102180	0.920998	7061.609375
6323.303551	0.094871	0.920998	7160.844238
6323.304438	0.094827	0.920998	7244.955566
6323.305319	0.094827	0.920998	7328.498047
6323.306404	0.094933	0.920998	7431.500000
6323.307366	0.094717	0.920998	7522.617676
6323.308227	0.094940	0.920998	7604.361328
6323.309237	0.094926	0.920998	7700.236328
6323.310279	0.094860	0.920998	7799.080078
6323.311172	0.094911	0.920998	7883.835449
6324.295649	1.071801	1.028023	495.171875
6324.296542	1.526118	1.028023	1857.995361
6324.297421	1.519061	1.028023	3193.250000
6324.298353	1.478796	1.028023	4571.488281
6324.299312	1.437792	1.028023	5950.330566
6324.300200	1.077037	1.028023	6906.739746
6324.301106	0.137245	1.028023	7031.083496
6324.302044	0.094783	1.028023	7119.989746
6324.302967	0.094852	1.028023	7207.538574
6324.303882	0.094819	1.028023	7294.298340
6324.304742	0.094827	1.028023	7375.849121
6324.305863	0.094918	1.028023	7482.252441
6324.306889	0.094816	1.028023	7579.533203
6324.307777	0.094827	1.028023	7663.739258
6324.308708	0.094900	1.028023	7752.090820
6324.309786	0.094871	1.028023	7854.361328
6325.322185	1.038003	0.963509	451.531281
6325.323044	1.522540	0.963509	1759.393433
6325.324031	1.516787	0.963509	3256.462402
6325.324961	1.476793	0.963509	4629.879883
6325.325853	1.438345	0.963509	5912.883301
6325.326798	1.024109	0.963509	6880.666016
6325.327744	0.118590	0.963509	6992.852051
6325.328662	0.094867	0.963509	7079.939941
6325.329525	0.094922	0.963509	7161.857422
6325.330478	0.094878	0.963509	7252.275879
6325.331417	0.094889	0.963509	7341.376465
6325.332341	0.094918	0.963509	7429.081055
6325.333199	0.094918	0.963509	7510.520996
6325.334148	0.094819	0.963509	7600.504395
6325.335085	0.094867	0.963509	7689.394531
6325.335977	0.094867	0.963509	7774.015625
6326.326202	1.035179	1.062727	437.880920
6326.327180	1.527385	1.062727	1931.663574
6326.328092	1.516000	1.062727	3314.255371
6326.328975	1.477269	1.062727	4618.684082
6326.329924	1.437418	1.062727	5982.793945
6326.330865	0.971840	1.062727	6897.294922
6326.331786	0.111544	1.062727	7000.027344
6326.332675	0.094702	1.062727	7084.217773
6326.333589	0.094863	1.062727	7170.922852
6326.334543	0.094893	1.062727	7261.450195
6326.335465	0.094852	1.062727	7348.903809
6326.336325	0.094900	1.062727	7430.517578
6326.337296	0.094896	1.062727	7522.661621
6326.338226	0.094852	1.062727	7610.874023
6326.339084	0.094904	1.062727	7692.301270
6326.340071	0.094874	1.062727	7785.942383
6327.341522	1.064582	0.995103	476.932953
6327.342409	1.525466	0.995103	1830.021606
6327.343272	1.519852	0.995103	3141.654297
6327.344251	1.478284	0.995103	4588.894043
6327.345206	1.437448	0.995103	5961.656250
6327.346090	1.071885	0.995103	6909.202148
6327.346999	0.134879	0.995103	7031.807129
6327.347960	0.094764	0.995103	7122.875488
6327.348885	0.094885	0.995103	7210.644531
6327.349758	0.094834	0.995103	7293.434570
6327.350673	0.094860	0.995103	7380.230957
6327.351615	0.094845	0.995103	7469.574707
6327.352535	0.094863	0.995103	7556.849121
6327.353397	0.094827	0.995103	7638.589844
6327.354366	0.094841	0.995103	7730.491211
6327.355316	0.094852	0.995103	7820.601074
6328.362504	1.073405	0.901312	538.849060
6328.363496	1.531897	0.901312	2058.490723
6328.364423	1.512301	0.901312	3460.393555
6328.365290	1.473702	0.901312	4738.093750
6328.366355	1.429142	0.901312	6260.129883
6328.367253	0.760411	0.901312	6942.979492
6328.368126	0.102279	0.901312	7032.269043
6328.368995	0.094882	0.901312	7114.721191
6328.370030	0.094918	0.901312	7212.961426
6328.370922	0.094867	0.901312	7297.582520
6328.371793	0.094995	0.901312	7380.323242
6328.372785	0.094969	0.901312	7474.533203
6328.373713	0.094918	0.901312	7562.617187
6328.374631	0.094958	0.901312	7649.789062
6328.375496	0.094929	0.901312	7731.902832
6328.376524	0.094841	0.901312	7829.399902
6329.361343	1.048817	0.970446	444.698425
6329.362445	1.530593	0.970446	2131.412109
6329.363421	1.508441	0.970446	3603.650879
6329.364289	1.469949	0.970446	4879.566406
6329.365333	1.425454	0.970446	6367.740234
6329.366369	0.485830	0.970446	6871.060059
6329.367253	0.096185	0.970446	6956.087891
6329.368177	0.094874	0.970446	7043.751953
6329.369230	0.094926	0.970446	7143.708496
6329.370171	0.094830	0.970446	7232.943848
6329.371029	0.094801	0.970446	7314.283203
6329.372050	0.094871	0.970446	7411.145996
6329.373082	0.094871	0.970446	7509.052246
6329.373955	0.094911	0.970446	7591.909668
6329.374893	0.094962	0.970446	7680.984375
6329.375939	0.094893	0.970446	7780.242187
6330.400202	1.047521	0.895060	459.861603
6330.401078	1.524188	0.895060	1795.050415
6330.401938	1.520321	0.895060	3102.526367
6330.402975	1.476768	0.895060	4633.934570
6330.403876	1.437872	0.895060	5929.457520
6330.404757	1.093689	0.895060	6892.997559
6330.405706	0.139871	0.895060	7025.734863
6330.406678	0.094827	0.895060	7117.906250
6330.407590	0.094871	0.895060	7204.428223
6330.408459	0.094929	0.895060	7286.921875
6330.409496	0.094951	0.895060	7385.386230
6330.410382	0.094830	0.895060	7469.405762
6330.411249	0.094896	0.895060	7551.680664
6330.412109	0.094874	0.895060	7633.272461
6330.413168	0.094882	0.895060	7733.751953
6330.414040	0.094893	0.895060	7816.498047
6331.381224	1.087112	1.054876	504.419891
6331.382118	1.526331	1.054876	1868.959473
6331.382982	1.518757	1.054876	3181.165771
6331.383952	1.477698	1.054876	4614.532715
6331.384905	1.436895	1.054876	5983.893066
6331.385785	1.065194	1.054876	6921.263672
6331.386701	0.134414	1.054876	7044.386719
6331.387672	0.094808	1.054876	7136.445801
6331.388594	0.094929	1.054876	7223.970703
6331.389468	0.094874	1.054876	7306.890625
6331.390436	0.094893	1.054876	7398.746582
6331.391398	0.094980	1.054876	7490.117676
6331.392335	0.094991	1.054876	7579.124512
6331.393200	0.094856	1.054876	7661.174805
6331.394158	0.094926	1.054876	7752.113281
6331.395100	0.094867	1.054876	7841.478027
6332.429330	1.111959	0.902134	558.203552
6332.430217	1.528894	0.902134	1914.332520
6332.431092	1.517915	0.902134	3242.508301
6332.432004	1.477625	0.902134	4590.102051
6332.433032	1.433932	0.902134	6064.184082
6332.433930	0.944703	0.902134	6912.527832
6332.434794	0.116210	0.902134	7012.933105
6332.435780	0.094808	0.902134	7106.414062
6332.436692	0.094860	0.902134	7192.926270
6332.437605	0.094915	0.902134	7279.583008
6332.438478	0.094918	0.902134	7362.446777
6332.439511	0.094933	0.902134	7460.512207
6332.440396	0.094896	0.902134	7544.495605
6332.441267	0.094900	0.902134	7627.153320
6332.442227	0.094933	0.902134	7718.289062
6332.443182	0.094907	0.902134	7808.925293
6333.409290	1.097816	1.086208	537.929871
6333.410181	1.527686	1.086208	1899.097656
6333.411108	1.516106	1.086208	3304.527832
6333.411986	1.477332	1.086208	4601.625000
6333.412967	1.435305	1.086208	6009.659180
6333.413912	0.928901	1.086208	6887.470703
6333.414785	0.114324	1.086208	6987.275391
6333.415801	0.094812	1.086208	7083.604492
6333.416692	0.094852	1.086208	7168.117676
6333.417609	0.094845	1.086208	7255.090332
6333.418482	0.094882	1.086208	7337.921875
6333.419444	0.094918	1.086208	7429.233398
6333.420370	0.094896	1.086208	7517.107422
6333.421280	0.094915	1.086208	7603.479492
6333.422155	0.094937	1.086208	7686.548828
6333.423119	0.094918	1.086208	7778.049805
6334.448572	1.025621	0.861049	431.786560
6334.449489	1.524521	0.861049	1829.772705
6334.450440	1.517033	0.861049	3272.470703
6334.451362	1.477156	0.861049	4634.408203
6334.452229	1.439044	0.861049	5882.059570
6334.453195	1.032968	0.861049	6879.906250
6334.454143	0.120176	0.861049	6993.833008
6334.455034	0.094819	0.861049	7078.316895
6334.455926	0.094878	0.861049	7162.948242
6334.456857	0.094882	0.861049	7251.283203
6334.457801	0.094918	0.861049	7340.885742
6334.458678	0.094933	0.861049	7424.142090
6334.459590	0.094878	0.861049	7510.670898
6334.460537	0.094944	0.861049	7600.582520
6334.461456	0.094969	0.861049	7687.859375
6334.462336	0.094944	0.861049	7771.410156
6335.446994	1.074968	0.942719	481.585754
6335.447922	1.527843	0.942719	1899.424072
6335.448789	1.517743	0.942719	3215.307129
6335.449780	1.476189	0.942719	4678.210449
6335.450708	1.436158	0.942719	6010.965332
6335.451598	1.026691	0.942719	6924.719727
6335.452504	0.127346	0.942719	7040.095215
6335.453446	0.094816	0.942719	7129.411621
6335.454384	0.094904	0.942719	7218.431152
6335.455261	0.094874	0.942719	7301.635742
6335.456187	0.094926	0.942719	7389.536621
6335.457148	0.094933	0.942719	7480.767090
6335.458074	0.094940	0.942719	7568.681641
6335.458933	0.094867	0.942719	7650.172363
6335.459898	0.094830	0.942719	7741.683594
6335.460820	0.094937	0.942719	7829.214844
6336.459787	1.113171	0.924712	562.151550
6336.460749	1.530055	0.924712	2034.064453
6336.461676	1.513283	0.924712	3436.877441
6336.462539	1.474369	0.924712	4709.257812
6336.463495	1.433635	0.924712	6079.813477
6336.464457	0.854220	0.924712	6901.573242
6336.465354	0.105143	0.924712	6995.886230
6336.466264	0.094816	0.924712	7082.168457
6336.467190	0.094860	0.924712	7170.008301
6336.468140	0.094896	0.924712	7260.159668
6336.469033	0.094893	0.924712	7344.898926
6336.469956	0.094933	0.924712	7432.521973
6336.470899	0.094915	0.924712	7522.026367
6336.471822	0.094904	0.924712	7609.622559
6336.472685	0.094973	0.924712	7691.584473
6336.473613	0.094940	0.924712	7779.688965
6337.490359	1.023567	0.831159	430.921692
6337.491328	1.523199	0.831159	1906.901855
6337.492352	1.512316	0.831159	3455.513184
6337.493246	1.472725	0.831159	4772.128906
6337.494113	1.434272	0.831159	6015.643066
6337.495209	0.728104	0.831159	6813.645508
6337.496139	0.098925	0.831159	6905.645508
6337.497016	0.094922	0.831159	6988.892090
6337.497989	0.094922	0.831159	7081.250977
6337.498992	0.094900	0.831159	7176.435547
6337.499870	0.094900	0.831159	7259.757812
6337.500726	0.094878	0.831159	7340.973145
6337.501802	0.095010	0.831159	7443.203613
6337.502725	0.094860	0.831159	7530.759277
6337.503599	0.094944	0.831159	7613.740234
6337.504544	0.094955	0.831159	7703.472656
6338.478622	1.111732	1.035939	566.983398
6338.479520	1.528854	1.035939	1939.894043
6338.480391	1.517007	1.035939	3261.207031
6338.481395	1.473248	1.035939	4740.348633
6338.482388	1.430240	1.035939	6160.577148
6338.483294	0.832954	1.035939	6915.233398
6338.484161	0.106472	1.035939	7007.544922
6338.485255	0.094962	1.035939	7111.433594
6338.486167	0.094878	1.035939	7197.962402
6338.487042	0.094885	1.035939	7280.986816
6338.488021	0.094958	1.035939	7373.951172
6338.489017	0.094948	1.035939	7468.519043
6338.489903	0.094948	1.035939	7552.642578
6338.490762	0.094980	1.035939	7634.230957
6338.491858	0.095035	1.035939	7738.389648
6338.492765	0.094918	1.035939	7824.480469
6339.514832	1.041709	0.862112	455.226807
6339.515696	1.523661	0.862112	1771.669800
6339.516637	1.518113	0.862112	3200.213867
6339.517609	1.476709	0.862112	4635.575195
6339.518519	1.436832	0.862112	5943.092773
6339.519401	1.037428	0.862112	6858.104004
6339.520366	0.120989	0.862112	6974.858398
6339.521310	0.094885	0.862112	7064.430176
6339.522204	0.094991	0.862112	7149.352539
6339.523116	0.094962	0.862112	7235.958008
6339.524036	0.094944	0.862112	7323.306152
6339.524981	0.095006	0.862112	7413.086914
6339.525867	0.094969	0.862112	7497.229980
6339.526802	0.094969	0.862112	7586.026367
6339.527753	0.094962	0.862112	7676.335449
6339.528676	0.094937	0.862112	7763.961914
6340.517323	1.040511	0.972351	450.541473
6340.518198	1.523807	0.972351	1783.872925
6340.519112	1.519988	0.972351	3173.141846
6340.520059	1.478185	0.972351	4572.982910
6340.520999	1.437576	0.972351	5924.304199
6340.521898	1.075829	0.972351	6891.474121
6340.522827	0.128456	0.972351	7010.809570
6340.523780	0.094882	0.972351	7101.231934
6340.524704	0.095021	0.972351	7189.031250
6340.525570	0.095024	0.972351	7271.322266
6340.526507	0.094951	0.972351	7360.291504
6340.527429	0.094944	0.972351	7447.829590
6340.528346	0.094991	0.972351	7534.936523
6340.529213	0.095002	0.972351	7617.303711
6340.530185	0.094991	0.972351	7709.635254
6340.531138	0.094984	0.972351	7800.155273
6341.522933	1.082761	1.006306	522.973633
6341.523876	1.529674	1.006306	1965.456299
6341.524802	1.514407	1.006306	3367.796875
6341.525670	1.475969	1.006306	4648.937988
6341.526649	1.434631	1.006306	6053.442383
6341.527611	0.888754	1.006306	6908.423340
6341.528498	0.108688	1.006306	7004.829590
6341.529384	0.094808	1.006306	7088.829590
6341.530318	0.094896	1.006306	7177.462891
6341.531261	0.094904	1.006306	7266.957031
6341.532151	0.094889	1.006306	7351.408203
6341.533060	0.094926	1.006306	7437.695312
6341.534026	0.094944	1.006306	7529.411133
6341.534943	0.094911	1.006306	7616.444336
6341.535813	0.094926	1.006306	7699.029785
6341.536820	0.094929	1.006306	7794.623535
6342.561823	1.119686	0.812862	590.074646
6342.562727	1.529960	0.812862	1973.158203
6342.563648	1.515165	0.812862	3368.625000
6342.564513	1.476086	0.812862	4645.439453
6342.565476	1.435016	0.812862	6027.359375
6342.566408	0.939456	0.812862	6902.932129
6342.567293	0.112687	0.812862	7002.660156
6342.568176	0.094871	0.812862	7086.430664
6342.569154	0.094944	0.812862	7179.285645
6342.570088	0.094871	0.812862	7267.895020
6342.570978	0.094882	0.812862	7352.339844
6342.571898	0.094860	0.812862	7439.610840
6342.572852	0.094915	0.812862	7530.159180
6342.573774	0.094871	0.812862	7617.629883
6342.574639	0.094933	0.812862	7699.746582
6342.575555	0.094907	0.812862	7786.681641
6343.541731	1.076836	1.051987	499.651886
6343.542610	1.525573	1.051987	1840.630127
6343.543589	1.516047	1.051987	3324.840332
6343.544640	1.469923	1.051987	4869.729492
6343.545555	1.430435	1.051987	6178.577148
6343.546423	0.859995	1.051987	6925.052734
6343.547511	0.100009	1.051987	7033.861816
6343.548504	0.094896	1.051987	7128.093750
6343.549377	0.094911	1.051987	7210.951172
6343.550374	0.094933	1.051987	7305.599121
6343.551415	0.094940	1.051987	7404.431641
6343.552304	0.094907	1.051987	7488.804199
6343.553174	0.094915	1.051987	7571.379883
6343.554269	0.094929	1.051987	7675.327148
6343.555236	0.094911	1.051987	7767.105957
6343.556116	0.094889	1.051987	7850.608398
6344.585717	1.081146	0.795464	511.382172
6344.586608	1.527004	0.795464	1871.943115
6344.587483	1.519098	0.795464	3201.153809
6344.588394	1.479353	0.795464	4548.844727
6344.589358	1.437920	0.795464	5934.999512
6344.590282	1.022600	0.795464	6879.881836
6344.591165	0.124603	0.795464	6989.906738
6344.592103	0.094852	0.795464	7078.878418
6344.593063	0.094948	0.795464	7170.027832
6344.593984	0.094911	0.795464	7257.440918
6344.594845	0.094918	0.795464	7339.165527
6344.595802	0.094922	0.795464	7430.005859
6344.596757	0.094929	0.795464	7520.663086
6344.597641	0.094926	0.795464	7604.577148
6344.598549	0.094937	0.795464	7690.779297
6344.599464	0.094918	0.795464	7777.629395
6345.578990	1.096930	0.947444	525.429443
6345.579926	1.529227	0.947444	1956.786133
6345.580855	1.514853	0.947444	3364.084961
6345.581728	1.475955	0.947444	4652.593262
6345.582694	1.434888	0.947444	6038.694824
6345.583650	0.916923	0.947444	6915.272949
6345.584540	0.111768	0.947444	7014.746094
6345.585468	0.094834	0.947444	7102.751953
6345.586385	0.094889	0.947444	7189.765137
6345.587309	0.094896	0.947444	7277.449219
6345.588198	0.094918	0.947444	7361.831543
6345.589114	0.094907	0.947444	7448.766602
6345.590051	0.094915	0.947444	7537.701660
6345.590944	0.094907	0.947444	7622.453613
6345.591851	0.094889	0.947444	7708.518066
6345.592810	0.094889	0.947444	7799.516602
6346.596305	1.043192	0.873368	457.961365
6346.597226	1.526851	0.873368	1864.190674
6346.598106	1.518728	0.873368	3200.671387
6346.599025	1.477925	0.873368	4558.884277
6346.599988	1.436807	0.873368	5942.529297
6346.600918	1.018539	0.873368	6889.770508
6346.601779	0.126101	0.873368	6998.343750
6346.602753	0.094779	0.873368	7090.658691
6346.603701	0.094896	0.873368	7180.620117
6346.604592	0.094907	0.873368	7265.182617
6346.605523	0.094918	0.873368	7353.551270
6346.606416	0.094948	0.873368	7438.339355
6346.607355	0.094918	0.873368	7527.467773
6346.608241	0.094904	0.873368	7611.552246
6346.609150	0.095006	0.873368	7697.912598
6346.610121	0.094878	0.873368	7790.039062
6347.622890	1.057804	0.815094	488.705444
6347.623781	1.526935	0.815094	1849.204346
6347.624646	1.519834	0.815094	3163.860840
6347.625623	1.478818	0.815094	4608.666016
6347.626550	1.437466	0.815094	5941.196777
6347.627479	1.024398	0.815094	6892.862793
6347.628337	0.127101	0.815094	7001.915527
6347.629312	0.094808	0.815094	7094.353516
6347.630259	0.094871	0.815094	7184.195801
6347.631153	0.094874	0.815094	7269.013184
6347.632064	0.094852	0.815094	7355.423828
6347.633004	0.094874	0.815094	7444.605469
6347.633921	0.094966	0.815094	7531.688965
6347.634806	0.094860	0.815094	7615.639648
6347.635738	0.094900	0.815094	7704.086426
6347.636695	0.094838	0.815094	7794.846191
6348.612597	1.065963	1.016034	501.002686
6348.613500	1.526623	1.016034	1879.543701
6348.614420	1.516838	1.016034	3275.035156
6348.615290	1.478511	1.016034	4561.339355
6348.616349	1.433441	1.016034	6079.353516
6348.617392	0.730595	1.016034	6841.363770
6348.618325	0.099437	1.016034	6934.138672
6348.619182	0.094878	1.016034	7015.449219
6348.620217	0.095013	1.016034	7113.788086
6348.621220	0.094874	1.016034	7208.946777
6348.622108	0.094878	1.016034	7293.198242
6348.623070	0.095090	1.016034	7384.675293
6348.624117	0.094937	1.016034	7484.073730
6348.625039	0.094940	1.016034	7571.608398
6348.625906	0.094922	1.016034	7653.905762
6348.626978	0.094948	1.016034	7755.689453
6349.649988	1.160790	0.802284	636.112854
6349.651021	1.533270	0.802284	2219.980957
6349.651917	1.509122	0.802284	3572.154541
6349.652859	1.467894	0.802284	4954.911133
6349.653934	1.421894	0.802284	6483.447754
6349.654867	0.473148	0.802284	6924.895020
6349.655727	0.096647	0.802284	7008.011230
6349.656793	0.094915	0.802284	7109.189941
6349.657795	0.094871	0.802284	7204.250488
6349.658685	0.094904	0.802284	7288.714844
6349.659660	0.095035	0.802284	7381.374512
6349.660699	0.094929	0.802284	7480.005859
6349.661612	0.094867	0.802284	7566.619141
6349.662471	0.094944	0.802284	7648.175781
6349.663544	0.094962	0.802284	7750.070312
6349.664533	0.094922	0.802284	7843.948242
6350.645186	1.032286	0.964766	444.915375
6350.646154	1.522588	0.964766	1918.780518
6350.647218	1.509976	0.964766	3525.394531
6350.648153	1.468791	0.964766	4898.714844
6350.649014	1.430658	0.964766	6130.511230
6350.650074	0.658572	0.964766	6828.597168
6350.651081	0.096339	0.964766	6925.610840
6350.651970	0.094926	0.964766	7009.999512
6350.652943	0.094980	0.964766	7102.415527
6350.654000	0.094940	0.964766	7202.767090
6350.654912	0.094900	0.964766	7289.315918
6350.655775	0.094882	0.964766	7371.198730
6350.656864	0.094973	0.964766	7474.624512
6350.657853	0.094783	0.964766	7568.364746
6350.658749	0.094937	0.964766	7653.427734
6350.659735	0.094962	0.964766	7747.060547
6351.664596	1.055977	0.862781	462.517761
6351.665462	1.523994	0.862781	1782.296631
6351.666510	1.514161	0.862781	3369.137695
6351.667540	1.469304	0.862781	4882.520996
6351.668425	1.431163	0.862781	6149.100586
6351.669388	0.782955	0.862781	6903.086426
6351.670450	0.098163	0.862781	7007.335449
6351.671375	0.094823	0.862781	7095.046875
6351.672232	0.094904	0.862781	7176.379395
6351.673293	0.094940	0.862781	7277.110840
6351.674300	0.094878	0.862781	7372.652832
6351.675170	0.094863	0.862781	7455.184082
6351.676132	0.095028	0.862781	7546.601074
6351.677182	0.094867	0.862781	7646.211426
6351.678092	0.094896	0.862781	7732.566895
6351.678958	0.095046	0.862781	7814.876953
6352.687061	1.064447	0.784990	468.356689
6352.687946	1.525781	0.784990	1818.673096
6352.688865	1.518376	0.784990	3214.061035
6352.689838	1.476599	0.784990	4650.791992
6352.690764	1.436459	0.784990	5980.952637
6352.691642	1.046312	0.784990	6899.614746
6352.692617	0.120055	0.784990	7016.668457
6352.693557	0.094904	0.784990	7105.877930
6352.694449	0.094980	0.784990	7190.600586
6352.695321	0.094955	0.784990	7273.401367
6352.696425	0.094966	0.784990	7378.243652
6352.697439	0.094915	0.784990	7474.486816
6352.698310	0.094889	0.784990	7557.135254
6352.699258	0.095028	0.784990	7647.221680
6352.700311	0.094904	0.784990	7747.155273
6352.701235	0.094882	0.784990	7834.825684
6353.678831	1.074741	0.965882	502.978912
6353.679722	1.526715	0.965882	1863.282104
6353.680608	1.518278	0.965882	3208.476074
6353.681523	1.478906	0.965882	4561.675293
6353.682473	1.437828	0.965882	5927.612305
6353.683402	1.026193	0.965882	6880.945312
6353.684289	0.125834	0.965882	6992.560059
6353.685226	0.094852	0.965882	7081.436523
6353.686184	0.094911	0.965882	7172.361328
6353.687111	0.094944	0.965882	7260.374023
6353.687970	0.094841	0.965882	7341.842773
6353.688914	0.094948	0.965882	7431.473145
6353.689856	0.094911	0.965882	7520.879395
6353.690746	0.095021	0.965882	7605.447754
6353.691621	0.094896	0.965882	7688.481934
6353.692584	0.095013	0.965882	7779.979980
6354.721771	1.065018	0.725706	504.818665
6354.722734	1.529872	0.725706	1978.085205
6354.723659	1.514608	0.725706	3379.097656
6354.724530	1.476017	0.725706	4664.708008
6354.725485	1.435071	0.725706	6035.200684
6354.726434	0.885681	0.725706	6875.711914
6354.727367	0.107161	0.725706	6975.692871
6354.728228	0.094878	0.725706	7057.382812
6354.729170	0.094918	0.725706	7146.795898
6354.730114	0.094863	0.725706	7236.346680
6354.731001	0.094867	0.725706	7320.493652
6354.731910	0.094926	0.725706	7406.780762
6354.732856	0.094841	0.725706	7496.500488
6354.733773	0.094911	0.725706	7583.533691
6354.734662	0.094962	0.725706	7667.955078
6354.735686	0.095035	0.725706	7765.271484
6355.702208	1.030184	0.971795	434.737823
6355.703157	1.521965	0.971795	1879.082886
6355.704146	1.514410	0.971795	3376.834717
6355.705075	1.473578	0.971795	4745.788574
6355.705947	1.435854	0.971795	5997.853516
6355.706985	0.833254	0.971795	6862.771484
6355.707866	0.105685	0.971795	6955.879883
6355.708731	0.094860	0.971795	7037.933594
6355.709616	0.094907	0.971795	7121.926270
6355.710653	0.094849	0.971795	7220.284180
6355.711540	0.094889	0.971795	7304.450684
6355.712415	0.094882	0.971795	7387.472168
6355.713402	0.094999	0.971795	7481.235840
6355.714340	0.094904	0.971795	7570.255371
6355.715264	0.094893	0.971795	7657.936035
6355.716124	0.094973	0.971795	7739.612793
6356.748269	1.059126	0.711973	479.784088
6356.749149	1.526151	0.711973	1822.797119
6356.750034	1.519156	0.711973	3167.250488
6356.750998	1.478221	0.711973	4592.255859
6356.751900	1.438685	0.711973	5889.950195
6356.752795	1.100464	0.711973	6874.865234
6356.753740	0.135553	0.711973	7002.962891
6356.754681	0.094838	0.711973	7092.205078
6356.755607	0.094948	0.711973	7180.126465
6356.756483	0.094878	0.711973	7263.239746
6356.757436	0.094926	0.711973	7353.703613
6356.758371	0.094885	0.711973	7442.421387
6356.759247	0.094948	0.711973	7525.595215
6356.760411	0.094951	0.711973	7636.118164
6356.761336	0.094951	0.711973	7723.948242
6356.762255	0.094944	0.711973	7811.201660
6357.730805	1.068171	0.975252	508.449585
6357.731684	1.526085	0.975252	1849.878540
6357.732571	1.518428	0.975252	3196.723877
6357.733458	1.479683	0.975252	4509.202148
6357.734423	1.437810	0.975252	5896.688965
6357.735389	1.005396	0.975252	6867.900879
6357.736277	0.120308	0.975252	6974.733887
6357.737189	0.094937	0.975252	7061.315918
6357.738147	0.094918	0.975252	7152.247559
6357.739072	0.094900	0.975252	7240.029785
6357.739937	0.094955	0.975252	7322.165527
6357.740893	0.094841	0.975252	7412.833984
6357.741801	0.094915	0.975252	7499.016602
6357.742716	0.094904	0.975252	7585.853516
6357.743594	0.094856	0.975252	7669.137207
6357.744562	0.094893	0.975252	7760.993164
6358.770614	1.041918	0.727683	435.521576
6358.771606	1.529443	0.727683	1952.729492
6358.772536	1.515110	0.727683	3361.781738
6358.773417	1.476390	0.727683	4662.481445
6358.774331	1.436990	0.727683	5975.890137
6358.775291	0.958359	0.727683	6895.915039
6358.776212	0.113309	0.727683	7000.272949
6358.777074	0.094885	0.727683	7082.063965
6358.778047	0.094951	0.727683	7174.451660
6358.778943	0.094977	0.727683	7259.550781
6358.779861	0.094944	0.727683	7346.708984
6358.780736	0.094922	0.727683	7429.765625
6358.781700	0.094900	0.727683	7521.249023
6358.782650	0.094962	0.727683	7611.462891
6358.783540	0.094929	0.727683	7695.949707
6358.784443	0.094911	0.727683	7781.654297
6359.760311	1.025244	0.936334	430.602539
6359.761228	1.522753	0.936334	1826.966675
6359.762203	1.516315	0.936334	3305.373535
6359.763131	1.475618	0.936334	4674.746582
6359.763999	1.437821	0.936334	5922.775391
6359.764958	0.994827	0.936334	6876.813965
6359.765880	0.116858	0.936334	6984.557129
6359.766806	0.094856	0.936334	7072.393555
6359.767663	0.094874	0.936334	7153.700684
6359.768604	0.094929	0.936334	7243.029297
6359.769557	0.094948	0.936334	7333.514160
6359.770446	0.094955	0.936334	7417.929199
6359.771362	0.094966	0.936334	7504.917969
6359.772303	0.094951	0.936334	7594.267090
6359.773216	0.094900	0.936334	7680.910645
6359.774100	0.094871	0.936334	7764.776367
6360.792586	1.101596	0.757473	550.797791
6360.793550	1.531706	0.757473	2027.362793
6360.794418	1.515396	0.757473	3342.726074
6360.795474	1.469019	0.757473	4894.009766
6360.796533	1.424275	0.757473	6402.316895
6360.797427	0.606310	0.757473	6944.357910
6360.798350	0.098547	0.757473	7035.316895
6360.799421	0.094948	0.757473	7137.005859
6360.800365	0.094867	0.757473	7226.560059
6360.801227	0.094926	0.757473	7308.385742
6360.802273	0.094995	0.757473	7407.750488
6360.803294	0.094889	0.757473	7504.631836
6360.804175	0.094896	0.757473	7588.235352
6360.805133	0.095028	0.757473	7679.272461
6360.806169	0.094937	0.757473	7777.626465
6360.807095	0.094951	0.757473	7865.551270
6361.790398	1.033575	0.858439	443.403839
6361.791266	1.522602	0.858439	1765.022705
6361.792365	1.512502	0.858439	3427.262695
6361.793361	1.468678	0.858439	4890.065918
6361.794253	1.430662	0.858439	6166.215820
6361.795241	0.718436	0.858439	6876.030762
6361.796294	0.097244	0.858439	6978.428223
6361.797194	0.094937	0.858439	7063.871094
6361.798058	0.094852	0.858439	7145.823242
6361.799137	0.094984	0.858439	7248.311035
6361.800104	0.094911	0.858439	7340.089844
6361.800971	0.094904	0.858439	7422.371094
6361.801975	0.094885	0.858439	7517.635742
6361.803017	0.094900	0.858439	7616.521484
6361.803898	0.094940	0.858439	7700.163574
6361.804761	0.094958	0.858439	7782.112793
6362.818620	1.154275	0.728791	625.617004
6362.819669	1.533351	0.728791	2234.102051
6362.820563	1.508837	0.728791	3583.001953
6362.821505	1.467349	0.728791	4965.244141
6362.822572	1.421400	0.728791	6481.877930
6362.823520	0.452831	0.728791	6911.161621
6362.824387	0.096420	0.728791	6994.757324
6362.825452	0.094911	0.728791	7095.837402
6362.826455	0.094922	0.728791	7191.043945
6362.827348	0.094929	0.728791	7275.815918
6362.828294	0.095002	0.728791	7365.688477
6362.829338	0.094926	0.728791	7464.790527
6362.830261	0.094907	0.728791	7552.389648
6362.831122	0.094922	0.728791	7634.117187
6362.832204	0.094940	0.728791	7736.842285
6363.817396	1.042148	0.879043	436.660217
6363.818387	1.528971	0.879043	1951.870361
6363.819313	1.514945	0.879043	3354.709473
6363.820200	1.476116	0.879043	4664.023926
6363.821118	1.436367	0.879043	5982.608887
6363.822087	0.938148	0.879043	6891.674316
6363.823012	0.110072	0.879043	6993.490723
6363.823872	0.094786	0.879043	7075.006836
6363.824840	0.094838	0.879043	7166.809570
6363.825785	0.094940	0.879043	7256.527832
6363.826676	0.094937	0.879043	7341.116211
6363.827545	0.094991	0.879043	7423.663574
6363.828642	0.094951	0.879043	7527.825195
6363.829660	0.094911	0.879043	7624.444336
6363.830538	0.094969	0.879043	7707.827637
6363.831476	0.094969	0.879043	7796.909180
6364.844530	1.092209	0.732541	512.246216
6364.845463	1.529605	0.732541	1939.367310
6364.846391	1.515286	0.732541	3345.552246
6364.847264	1.476009	0.732541	4634.108398
6364.848330	1.430955	0.732541	6159.505859
6364.849386	0.653470	0.732541	6849.570801
6364.850273	0.098247	0.732541	6936.715820
6364.851149	0.094944	0.732541	7019.886719
6364.852259	0.095061	0.732541	7125.404297
6364.853224	0.094885	0.732541	7216.968750
6364.854085	0.094900	0.732541	7298.677734
6364.855135	0.094980	0.732541	7398.407227
6364.856155	0.094933	0.732541	7495.238770
6364.857035	0.094991	0.732541	7578.831055
6364.857961	0.095010	0.732541	7666.810059
6364.859014	0.094991	0.732541	7766.835937
6365.842904	1.066355	0.851925	484.125153
6365.843786	1.525561	0.851925	1829.670288
6365.844780	1.515868	0.851925	3336.442871
6365.845823	1.470403	0.851925	4870.073242
6365.846733	1.430709	0.851925	6172.018555
6365.847607	0.847511	0.851925	6912.743164
6365.848702	0.099800	0.851925	7022.023926
6365.849692	0.094860	0.851925	7115.935059
6365.850572	0.094915	0.851925	7199.459961
6365.851565	0.094882	0.851925	7293.677246
6365.852612	0.094838	0.851925	7392.972168
6365.853494	0.094896	0.851925	7476.670410
6365.854359	0.094918	0.851925	7558.774414
6365.855451	0.094940	0.851925	7662.449219
6365.856424	0.094819	0.851925	7754.708496
6365.857291	0.094893	0.851925	7836.980469
6366.874045	1.037292	0.694341	438.774719
6366.875126	1.530864	0.694341	2093.638916
6366.876129	1.508049	0.694341	3606.212402
6366.877021	1.468678	0.694341	4916.273437
6366.877991	1.427637	0.694341	6301.081055
6366.879053	0.523550	0.694341	6857.090820
6366.879972	0.095903	0.694341	6945.226074
6366.880834	0.094893	0.694341	7027.023437
6366.881909	0.094889	0.694341	7129.028809
6366.882905	0.094852	0.694341	7223.501465
6366.883784	0.094867	0.694341	7306.889648
6366.884793	0.094918	0.694341	7402.662109
6366.885842	0.094915	0.694341	7502.227539
6366.886722	0.094882	0.694341	7585.723145
6366.887587	0.094856	0.694341	7667.773437
6366.888668	0.094907	0.694341	7770.368164
6367.864799	1.055061	0.895934	484.273041
6367.865686	1.525781	0.895934	1837.641113
6367.866552	1.519449	0.895934	3153.484375
6367.867538	1.478068	0.895934	4610.858887
6367.868490	1.437155	0.895934	5979.030273
6367.869390	1.044664	0.895934	6919.228027
6367.870271	0.130576	0.895934	7034.265625
6367.871217	0.094852	0.895934	7123.996094
6367.872155	0.094940	0.895934	7213.049805
6367.873047	0.094922	0.895934	7297.720215
6367.873999	0.094977	0.895934	7388.138184
6367.875062	0.095028	0.895934	7489.152832
6367.876055	0.094885	0.895934	7583.374023
6367.876948	0.094955	0.895934	7668.168457
6367.877928	0.095028	0.895934	7761.295898
6367.878978	0.095010	0.895934	7861.056152
6368.903617	1.035597	0.692887	441.164246
6368.904645	1.527642	0.692887	2011.579834
6368.905695	1.508906	0.692887	3595.931396
6368.906580	1.469227	0.692887	4896.197266
6368.907488	1.429299	0.692887	6194.000977
6368.908586	0.582990	0.692887	6834.123535
6368.909516	0.096317	0.692887	6923.698242
6368.910385	0.094856	0.692887	7006.127930
6368.911397	0.094922	0.692887	7102.188965
6368.912431	0.094838	0.692887	7200.250977
6368.913317	0.094948	0.692887	7284.374512
6368.914260	0.094962	0.692887	7373.923828
6368.915311	0.094958	0.692887	7473.725098
6368.916243	0.094904	0.692887	7562.175293
6368.917107	0.094984	0.692887	7644.241699
6368.918163	0.094951	0.692887	7744.510254
6369.888258	1.103972	0.942304	534.322571
6369.889135	1.527290	0.942304	1873.755859
6369.890006	1.517611	0.942304	3195.595215
6369.890980	1.476064	0.942304	4633.282227
6369.891939	1.435236	0.942304	6009.673340
6369.892843	0.995493	0.942304	6909.599121
6369.893756	0.121011	0.942304	7020.082031
6369.894728	0.094845	0.942304	7112.271484
6369.895644	0.094889	0.942304	7199.189941
6369.896508	0.094889	0.942304	7281.173828
6369.897562	0.094929	0.942304	7381.229004
6369.898601	0.094893	0.942304	7479.822266
6369.899525	0.094867	0.942304	7567.479492
6369.900384	0.094944	0.942304	7649.036133
6369.901434	0.094926	0.942304	7748.708008
6369.902449	0.094937	0.942304	7845.068359
6370.933180	1.029880	0.613219	436.669281
6370.934139	1.523741	0.613219	1897.937378
6370.935192	1.511162	0.613219	3489.190918
6370.936131	1.470040	0.613219	4869.558594
6370.937005	1.431577	0.613219	6120.756836
6370.938085	0.643290	0.613219	6815.509766
6370.939077	0.096431	0.613219	6911.168945
6370.939968	0.094889	0.613219	6995.714844
6370.940947	0.094951	0.613219	7088.671875
6370.941988	0.094966	0.613219	7187.531250
6370.942892	0.094885	0.613219	7273.307617
6370.943752	0.094900	0.613219	7354.921387
6370.944828	0.095050	0.613219	7457.195312
6370.945809	0.094904	0.613219	7550.295898
6370.946690	0.094951	0.613219	7633.947754
6370.947686	0.094988	0.613219	7728.555664
6371.913710	1.070925	0.943118	495.838440
6371.914656	1.529202	0.943118	1942.463379
6371.915588	1.514502	0.943118	3353.979004
6371.916457	1.475684	0.943118	4636.348145
6371.917419	1.435214	0.943118	6017.023437
6371.918379	0.909144	0.943118	6889.801758
6371.919271	0.111313	0.943118	6989.093262
6371.920205	0.094918	0.943118	7077.747070
6371.921262	0.095043	0.943118	7178.207031
6371.922272	0.094969	0.943118	7274.125977
6371.923145	0.094977	0.943118	7357.040527
6371.924114	0.095061	0.943118	7449.154785
6371.925173	0.094973	0.943118	7549.731445
6371.926086	0.094962	0.943118	7636.432129
6371.926952	0.094999	0.943118	7718.701172
6371.928027	0.095010	0.943118	7820.836914
6372.957167	1.067355	0.627003	495.252563
6372.958068	1.528334	0.627003	1872.281250
6372.958947	1.518842	0.627003	3207.342773
6372.959862	1.479866	0.627003	4561.419922
6372.960802	1.438253	0.627003	5913.377930
6372.961753	1.011130	0.627003	6874.962891
6372.962634	0.123834	0.627003	6984.061035
6372.963569	0.094915	0.627003	7072.806152
6372.964520	0.094955	0.627003	7163.108398
6372.965438	0.095017	0.627003	7250.333984
6372.966298	0.094893	0.627003	7331.941406
6372.967324	0.095054	0.627003	7429.466309
6372.968380	0.094984	0.627003	7529.769531
6372.969295	0.095006	0.627003	7616.700195
6372.970162	0.094962	0.627003	7699.032227
6372.971222	0.095013	0.627003	7799.746582
6373.947450	1.139088	0.857548	608.273071
6373.948510	1.532743	0.857548	2232.980469
6373.949394	1.508822	0.857548	3566.779053
6373.950275	1.468612	0.857548	4860.626465
6373.951380	1.422825	0.857548	6432.847656
6373.952340	0.490203	0.857548	6903.442383
6373.953201	0.096812	0.857548	6986.796875
6373.954236	0.095017	0.857548	7085.139648
6373.955262	0.094973	0.857548	7182.582031
6373.956136	0.095013	0.857548	7265.623535
6373.957053	0.094933	0.857548	7352.676758
6373.958112	0.095006	0.857548	7453.288086
6373.959045	0.094958	0.857548	7541.884277
6373.959908	0.094984	0.857548	7623.855469
6373.960922	0.094999	0.857548	7720.184082
6373.961940	0.094995	0.857548	7816.889160
6374.972364	1.046689	0.704311	457.403259
6374.973230	1.523529	0.704311	1776.779541
6374.974315	1.513132	0.704311	3418.528076
6374.975323	1.468868	0.704311	4899.147461
6374.976206	1.431057	0.704311	6162.770996
6374.977202	0.732048	0.704311	6891.891113
6374.978244	0.097650	0.704311	6993.642578
6374.979147	0.094918	0.704311	7079.353516
6374.980004	0.094940	0.704311	7160.717285
6374.981063	0.095017	0.704311	7261.340332
6374.982054	0.094915	0.704311	7355.400879
6374.982943	0.094940	0.704311	7439.802734
6374.983926	0.094995	0.704311	7533.183105
6374.984988	0.094969	0.704311	7634.040527
6374.985886	0.094980	0.704311	7719.333008
6374.986749	0.094940	0.704311	7801.266602
6375.986111	1.029672	0.737992	437.610474
6375.987105	1.524368	0.737992	1952.831909
6375.988174	1.509459	0.737992	3566.443848
6375.989067	1.469143	0.737992	4878.388672
6375.989938	1.430350	0.737992	6124.223633
6375.991034	0.619486	0.737992	6803.180664
6375.991994	0.096453	0.737992	6895.775391
6375.992877	0.094980	0.737992	6979.643066
6375.993879	0.095046	0.737992	7074.879395
6375.994920	0.094955	0.737992	7173.727539
6375.995814	0.094918	0.737992	7258.584473
6375.996681	0.094988	0.737992	7340.938965
6375.997778	0.095120	0.737992	7445.285156
6375.998738	0.094973	0.737992	7536.459473
6375.999610	0.095013	0.737992	7619.311035
6376.000644	0.095087	0.737992	7717.630859
6376.988603	1.030118	0.785889	437.800293
6376.989531	1.523712	0.785889	1851.805176
6376.990490	1.516201	0.785889	3305.842041
6376.991412	1.475797	0.785889	4666.526855
6376.992283	1.437883	0.785889	5918.923340
6376.993256	0.992922	0.785889	6885.036621
6376.994190	0.116100	0.785889	6993.473633
6376.995099	0.094860	0.785889	7079.701172
6376.995956	0.094834	0.785889	7160.974121
6376.996916	0.094915	0.785889	7252.092285
6376.997861	0.094900	0.785889	7341.772461
6376.998754	0.094951	0.785889	7426.563965
6376.999663	0.094962	0.785889	7512.884766
6377.000602	0.094882	0.785889	7601.978516
6377.001518	0.094907	0.785889	7688.913574
6377.002403	0.094937	0.785889	7772.932617
6378.021397	1.104148	0.681922	558.698914
6378.022279	1.529550	0.681922	1907.761719
6378.023142	1.516663	0.681922	3216.641602
6378.024239	1.470875	0.681922	4830.191406
6378.025200	1.429666	0.681922	6204.100098
6378.026073	0.841069	0.681922	6938.353516
6378.027127	0.100836	0.681922	7044.634766
6378.028158	0.094980	0.681922	7142.559570
6378.029023	0.094999	0.681922	7224.733398
6378.029918	0.095024	0.681922	7309.780273
6378.030995	0.095068	0.681922	7412.168945
6378.031943	0.094962	0.681922	7502.192871
6378.032808	0.094980	0.681922	7584.351074
6378.033826	0.095035	0.681922	7681.097168
6378.034859	0.094933	0.681922	7779.162598
6378.035751	0.094948	0.681922	7863.855957
